year    month   day   hour  minute  B_enl V_enl   n_enl       T_enl
[year] [month] [day] [hour][minute] [nT]  [km/s]  [cm-3]      [kK]
2014    9       21     0   1    7.56   488.5    7.3      49.443
2014    9       21     0   7    7.56   488.8    7.3      49.503
2014    9       21     0  12    7.56   489.1    7.3      49.560
2014    9       21     0  18    7.57   489.4    7.3      49.616
2014    9       21     0  23    7.57   489.7    7.3      49.671
2014    9       21     0  28    7.57   490.0    7.3      49.726
2014    9       21     0  34    7.57   490.3    7.3      49.779
2014    9       21     0  39    7.57   490.6    7.3      49.832
2014    9       21     0  45    7.58   490.8    7.3      49.885
2014    9       21     0  50    7.58   491.1    7.2      49.939
2014    9       21     0  56    7.58   491.4    7.2      49.994
2014    9       21     1   1    7.58   491.7    7.2      50.051
2014    9       21     1   6    7.58   492.0    7.2      50.109
2014    9       21     1  12    7.58   492.3    7.2      50.168
2014    9       21     1  17    7.59   492.6    7.2      50.230
2014    9       21     1  23    7.59   492.9    7.2      50.294
2014    9       21     1  28    7.59   493.3    7.2      50.360
2014    9       21     1  33    7.59   493.6    7.2      50.426
2014    9       21     1  39    7.59   493.9    7.2      50.494
2014    9       21     1  44    7.59   494.3    7.2      50.563
2014    9       21     1  50    7.60   494.6    7.2      50.631
2014    9       21     1  55    7.60   495.0    7.2      50.697
2014    9       21     2   0    7.60   495.3    7.2      50.762
2014    9       21     2   6    7.60   495.6    7.2      50.826
2014    9       21     2  11    7.60   496.0    7.2      50.889
2014    9       21     2  17    7.60   496.3    7.1      50.952
2014    9       21     2  22    7.60   496.6    7.1      51.015
2014    9       21     2  27    7.60   496.9    7.1      51.078
2014    9       21     2  33    7.60   497.2    7.1      51.143
2014    9       21     2  38    7.60   497.5    7.1      51.210
2014    9       21     2  44    7.61   497.8    7.1      51.281
2014    9       21     2  49    7.61   498.2    7.1      51.354
2014    9       21     2  54    7.61   498.5    7.1      51.431
2014    9       21     3   0    7.61   498.9    7.1      51.511
2014    9       21     3   5    7.61   499.3    7.1      51.594
2014    9       21     3  11    7.61   499.7    7.1      51.681
2014    9       21     3  16    7.61   500.1    7.1      51.771
2014    9       21     3  22    7.61   500.5    7.1      51.861
2014    9       21     3  27    7.61   500.9    7.1      51.951
2014    9       21     3  32    7.61   501.3    7.1      52.041
2014    9       21     3  38    7.61   501.8    7.0      52.129
2014    9       21     3  43    7.62   502.2    7.0      52.212
2014    9       21     3  49    7.62   502.6    7.0      52.292
2014    9       21     3  54    7.61   503.0    7.0      52.369
2014    9       21     3  59    7.61   503.4    7.0      52.442
2014    9       21     4   5    7.61   503.9    7.0      52.511
2014    9       21     4  10    7.61   504.3    7.0      52.578
2014    9       21     4  16    7.61   504.6    7.0      52.643
2014    9       21     4  21    7.61   505.0    7.0      52.705
2014    9       21     4  26    7.61   505.4    7.0      52.766
2014    9       21     4  32    7.61   505.8    6.9      52.825
2014    9       21     4  37    7.61   506.2    6.9      52.883
2014    9       21     4  43    7.61   506.6    6.9      52.939
2014    9       21     4  48    7.61   507.0    6.9      52.995
2014    9       21     4  53    7.60   507.4    6.9      53.049
2014    9       21     4  59    7.60   507.7    6.9      53.102
2014    9       21     5   4    7.60   508.1    6.9      53.155
2014    9       21     5  10    7.60   508.5    6.9      53.207
2014    9       21     5  15    7.60   508.9    6.9      53.259
2014    9       21     5  21    7.60   509.3    6.8      53.310
2014    9       21     5  26    7.59   509.6    6.8      53.361
2014    9       21     5  31    7.59   510.0    6.8      53.411
2014    9       21     5  37    7.59   510.4    6.8      53.461
2014    9       21     5  42    7.59   510.8    6.8      53.511
2014    9       21     5  48    7.59   511.1    6.8      53.560
2014    9       21     5  53    7.59   511.5    6.8      53.609
2014    9       21     5  58    7.58   511.9    6.8      53.657
2014    9       21     6   4    7.58   512.3    6.7      53.704
2014    9       21     6   9    7.58   512.7    6.7      53.749
2014    9       21     6  15    7.58   513.0    6.7      53.794
2014    9       21     6  20    7.58   513.4    6.7      53.837
2014    9       21     6  25    7.57   513.8    6.7      53.880
2014    9       21     6  31    7.57   514.2    6.7      53.919
2014    9       21     6  36    7.57   514.6    6.7      53.957
2014    9       21     6  42    7.57   515.0    6.7      53.993
2014    9       21     6  47    7.57   515.4    6.6      54.027
2014    9       21     6  52    7.56   515.8    6.6      54.058
2014    9       21     6  58    7.56   516.2    6.6      54.087
2014    9       21     7   3    7.56   516.6    6.6      54.114
2014    9       21     7   9    7.56   517.0    6.6      54.140
2014    9       21     7  14    7.55   517.5    6.6      54.164
2014    9       21     7  19    7.55   517.9    6.6      54.186
2014    9       21     7  25    7.55   518.3    6.5      54.207
2014    9       21     7  30    7.54   518.7    6.5      54.226
2014    9       21     7  36    7.54   519.1    6.5      54.243
2014    9       21     7  41    7.54   519.5    6.5      54.258
2014    9       21     7  47    7.53   519.9    6.5      54.272
2014    9       21     7  52    7.53   520.2    6.5      54.283
2014    9       21     7  57    7.53   520.6    6.4      54.294
2014    9       21     8   3    7.52   521.0    6.4      54.306
2014    9       21     8   8    7.52   521.3    6.4      54.316
2014    9       21     8  14    7.52   521.7    6.4      54.324
2014    9       21     8  19    7.51   522.0    6.4      54.331
2014    9       21     8  24    7.51   522.3    6.4      54.338
2014    9       21     8  30    7.50   522.7    6.3      54.345
2014    9       21     8  35    7.50   523.0    6.3      54.352
2014    9       21     8  41    7.50   523.3    6.3      54.359
2014    9       21     8  46    7.49   523.7    6.3      54.370
2014    9       21     8  51    7.49   524.0    6.3      54.384
2014    9       21     8  57    7.48   524.3    6.3      54.401
2014    9       21     9   2    7.48   524.7    6.2      54.420
2014    9       21     9   8    7.48   525.0    6.2      54.439
2014    9       21     9  13    7.47   525.3    6.2      54.456
2014    9       21     9  18    7.47   525.7    6.2      54.473
2014    9       21     9  24    7.46   526.0    6.2      54.489
2014    9       21     9  29    7.46   526.3    6.2      54.502
2014    9       21     9  35    7.46   526.5    6.2      54.515
2014    9       21     9  40    7.45   526.8    6.1      54.527
2014    9       21     9  45    7.45   527.1    6.1      54.541
2014    9       21     9  51    7.44   527.3    6.1      54.559
2014    9       21     9  56    7.44   527.6    6.1      54.578
2014    9       21    10   2    7.44   527.9    6.1      54.601
2014    9       21    10   7    7.43   528.2    6.1      54.628
2014    9       21    10  13    7.43   528.5    6.1      54.657
2014    9       21    10  18    7.43   528.8    6.1      54.692
2014    9       21    10  23    7.42   529.1    6.1      54.730
2014    9       21    10  29    7.42   529.5    6.0      54.773
2014    9       21    10  34    7.42   529.9    6.0      54.818
2014    9       21    10  40    7.41   530.2    6.0      54.864
2014    9       21    10  45    7.41   530.6    6.0      54.911
2014    9       21    10  50    7.41   531.0    6.0      54.955
2014    9       21    10  56    7.40   531.4    6.0      54.994
2014    9       21    11   1    7.40   531.8    6.0      55.028
2014    9       21    11   7    7.39   532.2    6.0      55.056
2014    9       21    11  12    7.39   532.5    6.0      55.080
2014    9       21    11  17    7.38   532.9    5.9      55.099
2014    9       21    11  23    7.38   533.2    5.9      55.115
2014    9       21    11  28    7.37   533.5    5.9      55.129
2014    9       21    11  34    7.37   533.8    5.9      55.140
2014    9       21    11  39    7.36   534.1    5.9      55.150
2014    9       21    11  44    7.36   534.5    5.9      55.159
2014    9       21    11  50    7.35   534.8    5.9      55.168
2014    9       21    11  55    7.34   535.1    5.9      55.176
2014    9       21    12   1    7.34   535.4    5.8      55.184
2014    9       21    12   6    7.33   535.8    5.8      55.191
2014    9       21    12  12    7.33   536.1    5.8      55.198
2014    9       21    12  17    7.32   536.4    5.8      55.205
2014    9       21    12  22    7.32   536.8    5.8      55.211
2014    9       21    12  28    7.31   537.1    5.8      55.216
2014    9       21    12  33    7.30   537.4    5.8      55.219
2014    9       21    12  39    7.30   537.8    5.7      55.220
2014    9       21    12  44    7.29   538.1    5.7      55.220
2014    9       21    12  49    7.28   538.4    5.7      55.218
2014    9       21    12  55    7.28   538.7    5.7      55.214
2014    9       21    13   0    7.27   539.0    5.7      55.208
2014    9       21    13   6    7.27   539.3    5.7      55.203
2014    9       21    13  11    7.26   539.6    5.7      55.196
2014    9       21    13  16    7.25   539.9    5.6      55.189
2014    9       21    13  22    7.25   540.1    5.6      55.180
2014    9       21    13  27    7.24   540.4    5.6      55.170
2014    9       21    13  33    7.23   540.7    5.6      55.158
2014    9       21    13  38    7.23   541.0    5.6      55.145
2014    9       21    13  43    7.22   541.3    5.6      55.128
2014    9       21    13  49    7.22   541.6    5.6      55.109
2014    9       21    13  54    7.21   541.8    5.5      55.087
2014    9       21    14   0    7.20   542.1    5.5      55.064
2014    9       21    14   5    7.20   542.4    5.5      55.038
2014    9       21    14  10    7.19   542.6    5.5      55.010
2014    9       21    14  16    7.18   542.9    5.5      54.982
2014    9       21    14  21    7.18   543.2    5.5      54.955
2014    9       21    14  27    7.17   543.5    5.5      54.928
2014    9       21    14  32    7.16   543.8    5.4      54.901
2014    9       21    14  38    7.16   544.1    5.4      54.875
2014    9       21    14  43    7.15   544.4    5.4      54.850
2014    9       21    14  48    7.15   544.7    5.4      54.824
2014    9       21    14  54    7.14   545.0    5.4      54.796
2014    9       21    14  59    7.13   545.2    5.4      54.766
2014    9       21    15   5    7.13   545.5    5.4      54.734
2014    9       21    15  10    7.12   545.8    5.4      54.700
2014    9       21    15  15    7.11   546.1    5.3      54.666
2014    9       21    15  21    7.10   546.4    5.3      54.628
2014    9       21    15  26    7.10   546.6    5.3      54.586
2014    9       21    15  32    7.09   546.9    5.3      54.540
2014    9       21    15  37    7.08   547.1    5.3      54.492
2014    9       21    15  42    7.08   547.3    5.3      54.441
2014    9       21    15  48    7.07   547.5    5.3      54.387
2014    9       21    15  53    7.06   547.6    5.2      54.331
2014    9       21    15  59    7.05   547.8    5.2      54.279
2014    9       21    16   4    7.05   547.9    5.2      54.230
2014    9       21    16   9    7.04   548.1    5.2      54.185
2014    9       21    16  15    7.04   548.2    5.2      54.143
2014    9       21    16  20    7.03   548.4    5.2      54.104
2014    9       21    16  26    7.02   548.5    5.2      54.067
2014    9       21    16  31    7.02   548.6    5.2      54.033
2014    9       21    16  36    7.01   548.8    5.2      54.000
2014    9       21    16  42    7.00   548.9    5.2      53.968
2014    9       21    16  47    7.00   549.0    5.1      53.937
2014    9       21    16  53    6.99   549.1    5.1      53.908
2014    9       21    16  58    6.99   549.2    5.1      53.883
2014    9       21    17   4    6.98   549.3    5.1      53.859
2014    9       21    17   9    6.98   549.4    5.1      53.836
2014    9       21    17  14    6.97   549.6    5.1      53.815
2014    9       21    17  20    6.97   549.7    5.1      53.796
2014    9       21    17  25    6.96   549.8    5.1      53.779
2014    9       21    17  31    6.96   549.9    5.1      53.763
2014    9       21    17  36    6.95   550.1    5.1      53.748
2014    9       21    17  41    6.95   550.2    5.1      53.733
2014    9       21    17  47    6.94   550.4    5.1      53.719
2014    9       21    17  52    6.93   550.5    5.1      53.705
2014    9       21    17  58    6.93   550.7    5.1      53.689
2014    9       21    18   3    6.92   550.9    5.1      53.673
2014    9       21    18   8    6.92   551.0    5.0      53.653
2014    9       21    18  14    6.91   551.2    5.0      53.630
2014    9       21    18  19    6.91   551.3    5.0      53.604
2014    9       21    18  25    6.90   551.5    5.0      53.575
2014    9       21    18  30    6.89   551.6    5.0      53.544
2014    9       21    18  35    6.89   551.7    5.0      53.511
2014    9       21    18  41    6.88   551.8    5.0      53.477
2014    9       21    18  46    6.88   552.0    5.0      53.441
2014    9       21    18  52    6.87   552.1    5.0      53.405
2014    9       21    18  57    6.86   552.2    5.0      53.369
2014    9       21    19   2    6.86   552.3    5.0      53.332
2014    9       21    19   8    6.85   552.4    5.0      53.296
2014    9       21    19  13    6.85   552.6    4.9      53.259
2014    9       21    19  19    6.84   552.7    4.9      53.222
2014    9       21    19  24    6.83   552.8    4.9      53.186
2014    9       21    19  30    6.83   552.9    4.9      53.149
2014    9       21    19  35    6.82   553.1    4.9      53.112
2014    9       21    19  40    6.81   553.2    4.9      53.073
2014    9       21    19  46    6.81   553.3    4.9      53.032
2014    9       21    19  51    6.80   553.4    4.9      52.989
2014    9       21    19  57    6.80   553.5    4.9      52.946
2014    9       21    20   2    6.79   553.6    4.9      52.900
2014    9       21    20   7    6.78   553.7    4.9      52.852
2014    9       21    20  13    6.78   553.7    4.8      52.804
2014    9       21    20  18    6.77   553.8    4.8      52.757
2014    9       21    20  24    6.77   553.9    4.8      52.710
2014    9       21    20  29    6.76   553.9    4.8      52.664
2014    9       21    20  34    6.75   554.0    4.8      52.618
2014    9       21    20  40    6.75   554.0    4.8      52.572
2014    9       21    20  45    6.74   554.1    4.8      52.528
2014    9       21    20  51    6.74   554.1    4.8      52.483
2014    9       21    20  56    6.73   554.2    4.8      52.439
2014    9       21    21   1    6.73   554.2    4.8      52.395
2014    9       21    21   7    6.72   554.3    4.8      52.351
2014    9       21    21  12    6.72   554.3    4.8      52.308
2014    9       21    21  18    6.71   554.4    4.8      52.264
2014    9       21    21  23    6.71   554.4    4.7      52.221
2014    9       21    21  29    6.70   554.5    4.7      52.179
2014    9       21    21  34    6.70   554.6    4.7      52.137
2014    9       21    21  39    6.69   554.6    4.7      52.096
2014    9       21    21  45    6.69   554.7    4.7      52.055
2014    9       21    21  50    6.68   554.8    4.7      52.015
2014    9       21    21  56    6.68   554.8    4.7      51.974
2014    9       21    22   1    6.67   554.9    4.7      51.932
2014    9       21    22   6    6.67   555.0    4.7      51.891
2014    9       21    22  12    6.66   555.0    4.7      51.849
2014    9       21    22  17    6.66   555.1    4.7      51.806
2014    9       21    22  23    6.65   555.1    4.7      51.764
2014    9       21    22  28    6.65   555.2    4.7      51.722
2014    9       21    22  33    6.64   555.2    4.7      51.681
2014    9       21    22  39    6.64   555.3    4.7      51.641
2014    9       21    22  44    6.63   555.3    4.7      51.601
2014    9       21    22  50    6.63   555.3    4.7      51.562
2014    9       21    22  55    6.62   555.4    4.7      51.524
2014    9       21    23   0    6.62   555.4    4.6      51.487
2014    9       21    23   6    6.61   555.4    4.6      51.452
2014    9       21    23  11    6.61   555.5    4.6      51.418
2014    9       21    23  17    6.60   555.5    4.6      51.385
2014    9       21    23  22    6.60   555.5    4.6      51.354
2014    9       21    23  27    6.60   555.5    4.6      51.325
2014    9       21    23  33    6.59   555.5    4.6      51.298
2014    9       21    23  38    6.59   555.6    4.6      51.272
2014    9       21    23  44    6.58   555.6    4.6      51.248
2014    9       21    23  49    6.58   555.6    4.6      51.226
2014    9       21    23  55    6.58   555.6    4.6      51.205
2014    9       22     0   0    6.57   555.6    4.6      51.186
2014    9       22     0   5    6.57   555.6    4.6      51.169
2014    9       22     0  11    6.57   555.7    4.6      51.153
2014    9       22     0  16    6.56   555.7    4.6      51.138
2014    9       22     0  22    6.56   555.7    4.6      51.124
2014    9       22     0  27    6.56   555.7    4.6      51.111
2014    9       22     0  32    6.55   555.8    4.6      51.098
2014    9       22     0  38    6.55   555.8    4.6      51.086
2014    9       22     0  43    6.54   555.9    4.6      51.072
2014    9       22     0  49    6.54   555.9    4.6      51.056
2014    9       22     0  54    6.54   555.9    4.6      51.040
2014    9       22     0  59    6.53   555.9    4.6      51.022
2014    9       22     1   5    6.53   556.0    4.6      51.003
2014    9       22     1  10    6.53   556.0    4.6      50.983
2014    9       22     1  16    6.52   556.0    4.6      50.962
2014    9       22     1  21    6.52   556.0    4.6      50.940
2014    9       22     1  26    6.52   556.1    4.6      50.917
2014    9       22     1  32    6.51   556.1    4.6      50.894
2014    9       22     1  37    6.51   556.1    4.6      50.870
2014    9       22     1  43    6.50   556.1    4.6      50.845
2014    9       22     1  48    6.50   556.1    4.6      50.820
2014    9       22     1  53    6.50   556.1    4.6      50.795
2014    9       22     1  59    6.49   556.2    4.6      50.769
2014    9       22     2   4    6.49   556.2    4.6      50.743
2014    9       22     2  10    6.49   556.2    4.6      50.716
2014    9       22     2  15    6.48   556.2    4.6      50.689
2014    9       22     2  20    6.48   556.2    4.6      50.662
2014    9       22     2  26    6.48   556.2    4.6      50.635
2014    9       22     2  31    6.47   556.2    4.6      50.607
2014    9       22     2  37    6.47   556.2    4.6      50.579
2014    9       22     2  42    6.47   556.2    4.6      50.551
2014    9       22     2  48    6.46   556.2    4.6      50.522
2014    9       22     2  53    6.46   556.2    4.6      50.494
2014    9       22     2  58    6.46   556.2    4.6      50.465
2014    9       22     3   4    6.45   556.2    4.5      50.436
2014    9       22     3   9    6.45   556.3    4.5      50.407
2014    9       22     3  15    6.45   556.3    4.5      50.377
2014    9       22     3  20    6.44   556.3    4.5      50.348
2014    9       22     3  25    6.44   556.3    4.5      50.319
2014    9       22     3  31    6.44   556.3    4.5      50.289
2014    9       22     3  36    6.43   556.3    4.5      50.260
2014    9       22     3  42    6.43   556.2    4.5      50.230
2014    9       22     3  47    6.43   556.2    4.5      50.200
2014    9       22     3  52    6.42   556.2    4.5      50.170
2014    9       22     3  58    6.42   556.2    4.5      50.141
2014    9       22     4   3    6.42   556.2    4.5      50.111
2014    9       22     4   9    6.41   556.2    4.5      50.081
2014    9       22     4  14    6.41   556.2    4.5      50.052
2014    9       22     4  19    6.41   556.2    4.5      50.023
2014    9       22     4  25    6.41   556.2    4.5      49.993
2014    9       22     4  30    6.40   556.2    4.5      49.964
2014    9       22     4  36    6.40   556.2    4.5      49.935
2014    9       22     4  41    6.40   556.2    4.5      49.907
2014    9       22     4  46    6.39   556.2    4.5      49.878
2014    9       22     4  52    6.39   556.2    4.5      49.850
2014    9       22     4  57    6.39   556.2    4.5      49.822
2014    9       22     5   3    6.39   556.1    4.5      49.794
2014    9       22     5   8    6.38   556.1    4.5      49.767
2014    9       22     5  13    6.38   556.1    4.5      49.741
2014    9       22     5  19    6.38   556.1    4.5      49.714
2014    9       22     5  24    6.37   556.1    4.5      49.688
2014    9       22     5  30    6.37   556.1    4.5      49.663
2014    9       22     5  35    6.37   556.1    4.5      49.638
2014    9       22     5  41    6.37   556.1    4.5      49.614
2014    9       22     5  46    6.36   556.0    4.4      49.590
2014    9       22     5  51    6.36   556.0    4.4      49.566
2014    9       22     5  57    6.36   556.0    4.4      49.543
2014    9       22     6   2    6.36   556.0    4.4      49.521
2014    9       22     6   8    6.36   556.0    4.4      49.499
2014    9       22     6  13    6.35   556.0    4.4      49.477
2014    9       22     6  18    6.35   556.0    4.4      49.456
2014    9       22     6  24    6.35   556.0    4.4      49.436
2014    9       22     6  29    6.35   555.9    4.4      49.416
2014    9       22     6  35    6.34   555.9    4.4      49.396
2014    9       22     6  40    6.34   555.9    4.4      49.377
2014    9       22     6  45    6.34   555.9    4.4      49.358
2014    9       22     6  51    6.34   555.9    4.4      49.339
2014    9       22     6  56    6.34   555.9    4.4      49.321
2014    9       22     7   2    6.33   555.9    4.4      49.303
2014    9       22     7   7    6.33   555.9    4.4      49.285
2014    9       22     7  12    6.33   555.8    4.4      49.267
2014    9       22     7  18    6.33   555.8    4.4      49.250
2014    9       22     7  23    6.33   555.8    4.4      49.233
2014    9       22     7  29    6.32   555.8    4.4      49.216
2014    9       22     7  34    6.32   555.8    4.4      49.199
2014    9       22     7  39    6.32   555.8    4.4      49.182
2014    9       22     7  45    6.32   555.8    4.4      49.166
2014    9       22     7  50    6.32   555.7    4.4      49.149
2014    9       22     7  56    6.31   555.7    4.4      49.133
2014    9       22     8   1    6.31   555.7    4.4      49.116
2014    9       22     8   7    6.31   555.7    4.4      49.100
2014    9       22     8  12    6.31   555.7    4.4      49.083
2014    9       22     8  17    6.31   555.7    4.4      49.067
2014    9       22     8  23    6.30   555.7    4.4      49.051
2014    9       22     8  28    6.30   555.6    4.4      49.034
2014    9       22     8  34    6.30   555.6    4.4      49.018
2014    9       22     8  39    6.30   555.6    4.4      49.002
2014    9       22     8  44    6.30   555.6    4.4      48.986
2014    9       22     8  50    6.30   555.6    4.4      48.970
2014    9       22     8  55    6.29   555.5    4.4      48.955
2014    9       22     9   1    6.29   555.5    4.4      48.940
2014    9       22     9   6    6.29   555.5    4.4      48.925
2014    9       22     9  11    6.29   555.5    4.4      48.910
2014    9       22     9  17    6.29   555.5    4.4      48.896
2014    9       22     9  22    6.28   555.5    4.4      48.881
2014    9       22     9  28    6.28   555.4    4.4      48.867
2014    9       22     9  33    6.28   555.4    4.4      48.854
2014    9       22     9  38    6.28   555.4    4.4      48.840
2014    9       22     9  44    6.28   555.4    4.4      48.828
2014    9       22     9  49    6.28   555.4    4.4      48.815
2014    9       22     9  55    6.27   555.4    4.4      48.803
2014    9       22    10   0    6.27   555.3    4.4      48.791
2014    9       22    10   5    6.27   555.3    4.4      48.780
2014    9       22    10  11    6.27   555.3    4.4      48.769
2014    9       22    10  16    6.27   555.3    4.4      48.758
2014    9       22    10  22    6.27   555.3    4.4      48.748
2014    9       22    10  27    6.26   555.2    4.4      48.738
2014    9       22    10  32    6.26   555.2    4.4      48.729
2014    9       22    10  38    6.26   555.2    4.4      48.720
2014    9       22    10  43    6.26   555.2    4.4      48.712
2014    9       22    10  49    6.26   555.1    4.4      48.703
2014    9       22    10  54    6.26   555.1    4.4      48.694
2014    9       22    11   0    6.25   555.1    4.4      48.684
2014    9       22    11   5    6.25   555.1    4.4      48.675
2014    9       22    11  10    6.25   555.0    4.4      48.664
2014    9       22    11  16    6.25   555.0    4.4      48.653
2014    9       22    11  21    6.25   555.0    4.4      48.642
2014    9       22    11  27    6.25   554.9    4.4      48.631
2014    9       22    11  32    6.25   554.9    4.4      48.619
2014    9       22    11  37    6.24   554.9    4.4      48.607
2014    9       22    11  43    6.24   554.9    4.4      48.594
2014    9       22    11  48    6.24   554.8    4.4      48.581
2014    9       22    11  54    6.24   554.8    4.4      48.568
2014    9       22    11  59    6.24   554.8    4.4      48.554
2014    9       22    12   4    6.24   554.7    4.4      48.541
2014    9       22    12  10    6.24   554.7    4.4      48.526
2014    9       22    12  15    6.23   554.7    4.4      48.512
2014    9       22    12  21    6.23   554.7    4.4      48.498
2014    9       22    12  26    6.23   554.6    4.4      48.483
2014    9       22    12  31    6.23   554.6    4.4      48.468
2014    9       22    12  37    6.23   554.6    4.4      48.452
2014    9       22    12  42    6.23   554.5    4.4      48.437
2014    9       22    12  48    6.23   554.5    4.4      48.421
2014    9       22    12  53    6.23   554.5    4.4      48.406
2014    9       22    12  58    6.22   554.4    4.4      48.390
2014    9       22    13   4    6.22   554.4    4.4      48.373
2014    9       22    13   9    6.22   554.4    4.4      48.357
2014    9       22    13  15    6.22   554.4    4.4      48.341
2014    9       22    13  20    6.22   554.3    4.4      48.324
2014    9       22    13  26    6.22   554.3    4.4      48.307
2014    9       22    13  31    6.22   554.3    4.4      48.291
2014    9       22    13  36    6.22   554.2    4.4      48.274
2014    9       22    13  42    6.22   554.2    4.4      48.257
2014    9       22    13  47    6.21   554.2    4.4      48.239
2014    9       22    13  53    6.21   554.1    4.4      48.222
2014    9       22    13  58    6.21   554.1    4.4      48.204
2014    9       22    14   3    6.21   554.1    4.4      48.187
2014    9       22    14   9    6.21   554.0    4.4      48.169
2014    9       22    14  14    6.21   554.0    4.4      48.151
2014    9       22    14  20    6.21   554.0    4.4      48.133
2014    9       22    14  25    6.21   553.9    4.3      48.115
2014    9       22    14  30    6.21   553.9    4.3      48.097
2014    9       22    14  36    6.21   553.9    4.3      48.080
2014    9       22    14  41    6.21   553.9    4.3      48.062
2014    9       22    14  47    6.21   553.8    4.3      48.044
2014    9       22    14  52    6.20   553.8    4.3      48.026
2014    9       22    14  57    6.20   553.8    4.3      48.008
2014    9       22    15   3    6.20   553.7    4.3      47.991
2014    9       22    15   8    6.20   553.7    4.3      47.974
2014    9       22    15  14    6.20   553.7    4.3      47.957
2014    9       22    15  19    6.20   553.6    4.3      47.940
2014    9       22    15  24    6.20   553.6    4.3      47.924
2014    9       22    15  30    6.20   553.6    4.3      47.908
2014    9       22    15  35    6.20   553.5    4.3      47.892
2014    9       22    15  41    6.20   553.5    4.3      47.877
2014    9       22    15  46    6.20   553.5    4.3      47.863
2014    9       22    15  52    6.20   553.5    4.3      47.849
2014    9       22    15  57    6.20   553.4    4.3      47.836
2014    9       22    16   2    6.19   553.4    4.3      47.823
2014    9       22    16   8    6.19   553.4    4.3      47.811
2014    9       22    16  13    6.19   553.3    4.3      47.800
2014    9       22    16  19    6.19   553.3    4.3      47.789
2014    9       22    16  24    6.19   553.3    4.3      47.780
2014    9       22    16  29    6.19   553.3    4.3      47.771
2014    9       22    16  35    6.19   553.2    4.3      47.763
2014    9       22    16  40    6.19   553.2    4.3      47.755
2014    9       22    16  46    6.19   553.2    4.3      47.749
2014    9       22    16  51    6.19   553.2    4.3      47.743
2014    9       22    16  56    6.19   553.2    4.3      47.738
2014    9       22    17   2    6.19   553.1    4.3      47.734
2014    9       22    17   7    6.19   553.1    4.3      47.731
2014    9       22    17  13    6.19   553.1    4.3      47.728
2014    9       22    17  18    6.18   553.1    4.3      47.727
2014    9       22    17  23    6.18   553.1    4.3      47.725
2014    9       22    17  29    6.18   553.0    4.3      47.725
2014    9       22    17  34    6.18   553.0    4.3      47.725
2014    9       22    17  40    6.18   553.0    4.3      47.727
2014    9       22    17  45    6.18   553.0    4.3      47.729
2014    9       22    17  50    6.18   552.9    4.3      47.732
2014    9       22    17  56    6.18   552.9    4.4      47.735
2014    9       22    18   1    6.18   552.9    4.4      47.739
2014    9       22    18   7    6.18   552.9    4.4      47.743
2014    9       22    18  12    6.18   552.8    4.4      47.746
2014    9       22    18  17    6.18   552.8    4.4      47.749
2014    9       22    18  23    6.18   552.8    4.4      47.752
2014    9       22    18  28    6.18   552.8    4.4      47.755
2014    9       22    18  34    6.17   552.7    4.4      47.758
2014    9       22    18  39    6.17   552.7    4.4      47.760
2014    9       22    18  45    6.17   552.7    4.4      47.761
2014    9       22    18  50    6.17   552.7    4.4      47.763
2014    9       22    18  55    6.17   552.6    4.4      47.764
2014    9       22    19   1    6.17   552.6    4.4      47.764
2014    9       22    19   6    6.17   552.6    4.4      47.764
2014    9       22    19  12    6.17   552.5    4.4      47.763
2014    9       22    19  17    6.17   552.5    4.4      47.762
2014    9       22    19  22    6.17   552.5    4.4      47.760
2014    9       22    19  28    6.17   552.5    4.4      47.758
2014    9       22    19  33    6.17   552.4    4.4      47.755
2014    9       22    19  39    6.17   552.4    4.4      47.752
2014    9       22    19  44    6.17   552.4    4.4      47.748
2014    9       22    19  49    6.17   552.3    4.4      47.744
2014    9       22    19  55    6.17   552.3    4.4      47.740
2014    9       22    20   0    6.17   552.3    4.4      47.735
2014    9       22    20   6    6.17   552.3    4.4      47.730
2014    9       22    20  11    6.17   552.2    4.4      47.724
2014    9       22    20  16    6.16   552.2    4.4      47.717
2014    9       22    20  22    6.16   552.2    4.4      47.711
2014    9       22    20  27    6.16   552.1    4.4      47.704
2014    9       22    20  33    6.16   552.1    4.4      47.696
2014    9       22    20  38    6.16   552.1    4.4      47.689
2014    9       22    20  43    6.16   552.1    4.4      47.681
2014    9       22    20  49    6.16   552.0    4.4      47.672
2014    9       22    20  54    6.16   552.0    4.4      47.664
2014    9       22    21   0    6.16   552.0    4.4      47.655
2014    9       22    21   5    6.16   552.0    4.4      47.646
2014    9       22    21  11    6.16   551.9    4.4      47.637
2014    9       22    21  16    6.16   551.9    4.4      47.627
2014    9       22    21  21    6.16   551.9    4.4      47.618
2014    9       22    21  27    6.16   551.9    4.4      47.608
2014    9       22    21  32    6.16   551.8    4.4      47.598
2014    9       22    21  38    6.16   551.8    4.4      47.588
2014    9       22    21  43    6.16   551.8    4.4      47.578
2014    9       22    21  48    6.16   551.8    4.4      47.567
2014    9       22    21  54    6.16   551.7    4.3      47.557
2014    9       22    21  59    6.16   551.7    4.3      47.547
2014    9       22    22   5    6.16   551.7    4.3      47.537
2014    9       22    22  10    6.16   551.7    4.3      47.526
2014    9       22    22  15    6.16   551.6    4.3      47.516
2014    9       22    22  21    6.16   551.6    4.3      47.506
2014    9       22    22  26    6.16   551.6    4.3      47.497
2014    9       22    22  32    6.16   551.6    4.3      47.487
2014    9       22    22  37    6.16   551.5    4.3      47.477
2014    9       22    22  42    6.16   551.5    4.3      47.468
2014    9       22    22  48    6.16   551.5    4.3      47.459
2014    9       22    22  53    6.16   551.5    4.3      47.450
2014    9       22    22  59    6.16   551.4    4.3      47.442
2014    9       22    23   4    6.16   551.4    4.3      47.433
2014    9       22    23   9    6.16   551.4    4.3      47.425
2014    9       22    23  15    6.16   551.4    4.3      47.418
2014    9       22    23  20    6.16   551.4    4.3      47.411
2014    9       22    23  26    6.16   551.3    4.3      47.404
2014    9       22    23  31    6.16   551.3    4.3      47.398
2014    9       22    23  37    6.16   551.3    4.3      47.391
2014    9       22    23  42    6.16   551.3    4.3      47.386
2014    9       22    23  47    6.16   551.2    4.3      47.380
2014    9       22    23  53    6.16   551.2    4.3      47.376
2014    9       22    23  58    6.15   551.2    4.3      47.371
2014    9       23     0   4    6.15   551.2    4.3      47.367
2014    9       23     0   9    6.15   551.2    4.3      47.364
2014    9       23     0  14    6.15   551.1    4.3      47.360
2014    9       23     0  20    6.15   551.1    4.3      47.357
2014    9       23     0  25    6.15   551.1    4.3      47.355
2014    9       23     0  31    6.15   551.1    4.3      47.353
2014    9       23     0  36    6.15   551.0    4.3      47.351
2014    9       23     0  41    6.15   551.0    4.3      47.350
2014    9       23     0  47    6.15   551.0    4.3      47.349
2014    9       23     0  52    6.15   551.0    4.3      47.348
2014    9       23     0  58    6.15   551.0    4.3      47.347
2014    9       23     1   3    6.15   550.9    4.3      47.347
2014    9       23     1   8    6.15   550.9    4.3      47.347
2014    9       23     1  14    6.15   550.9    4.3      47.347
2014    9       23     1  19    6.15   550.9    4.3      47.347
2014    9       23     1  25    6.15   550.9    4.3      47.348
2014    9       23     1  30    6.15   550.8    4.3      47.349
2014    9       23     1  35    6.15   550.8    4.3      47.350
2014    9       23     1  41    6.15   550.8    4.3      47.351
2014    9       23     1  46    6.15   550.8    4.3      47.352
2014    9       23     1  52    6.15   550.8    4.3      47.353
2014    9       23     1  57    6.15   550.7    4.3      47.355
2014    9       23     2   2    6.15   550.7    4.3      47.356
2014    9       23     2   8    6.15   550.7    4.3      47.358
2014    9       23     2  13    6.15   550.7    4.3      47.359
2014    9       23     2  19    6.15   550.6    4.4      47.361
2014    9       23     2  24    6.15   550.6    4.4      47.362
2014    9       23     2  30    6.15   550.6    4.4      47.363
2014    9       23     2  35    6.15   550.6    4.4      47.364
2014    9       23     2  40    6.15   550.6    4.4      47.364
2014    9       23     2  46    6.15   550.5    4.4      47.364
2014    9       23     2  51    6.15   550.5    4.4      47.364
2014    9       23     2  57    6.15   550.5    4.4      47.364
2014    9       23     3   2    6.15   550.5    4.4      47.363
2014    9       23     3   7    6.15   550.4    4.4      47.362
2014    9       23     3  13    6.15   550.4    4.4      47.361
2014    9       23     3  18    6.15   550.4    4.4      47.359
2014    9       23     3  24    6.15   550.4    4.4      47.357
2014    9       23     3  29    6.15   550.4    4.4      47.355
2014    9       23     3  34    6.15   550.3    4.4      47.353
2014    9       23     3  40    6.15   550.3    4.4      47.350
2014    9       23     3  45    6.15   550.3    4.4      47.348
2014    9       23     3  51    6.15   550.3    4.4      47.345
2014    9       23     3  56    6.15   550.2    4.4      47.342
2014    9       23     4   1    6.15   550.2    4.4      47.338
2014    9       23     4   7    6.15   550.2    4.4      47.335
2014    9       23     4  12    6.15   550.2    4.4      47.331
2014    9       23     4  18    6.15   550.1    4.4      47.328
2014    9       23     4  23    6.15   550.1    4.4      47.324
2014    9       23     4  28    6.15   550.1    4.4      47.321
2014    9       23     4  34    6.15   550.1    4.4      47.317
2014    9       23     4  39    6.15   550.0    4.4      47.313
2014    9       23     4  45    6.15   550.0    4.4      47.310
2014    9       23     4  50    6.15   550.0    4.4      47.307
2014    9       23     4  55    6.15   550.0    4.4      47.304
2014    9       23     5   1    6.15   549.9    4.4      47.301
2014    9       23     5   6    6.15   549.9    4.4      47.299
2014    9       23     5  12    6.15   549.9    4.4      47.297
2014    9       23     5  17    6.15   549.9    4.4      47.295
2014    9       23     5  23    6.15   549.9    4.4      47.294
2014    9       23     5  28    6.15   549.8    4.4      47.293
2014    9       23     5  33    6.15   549.8    4.4      47.294
2014    9       23     5  39    6.15   549.8    4.4      47.295
2014    9       23     5  44    6.15   549.8    4.4      47.297
2014    9       23     5  50    6.15   549.7    4.4      47.300
2014    9       23     5  55    6.15   549.7    4.4      47.303
2014    9       23     6   0    6.15   549.7    4.4      47.308
2014    9       23     6   6    6.16   549.7    4.4      47.314
2014    9       23     6  11    6.16   549.7    4.4      47.321
2014    9       23     6  17    6.16   549.7    4.4      47.328
2014    9       23     6  22    6.16   549.7    4.4      47.337
2014    9       23     6  27    6.16   549.7    4.4      47.347
2014    9       23     6  33    6.16   549.6    4.4      47.358
2014    9       23     6  38    6.16   549.6    4.4      47.369
2014    9       23     6  44    6.16   549.6    4.4      47.379
2014    9       23     6  49    6.16   549.6    4.4      47.389
2014    9       23     6  54    6.16   549.6    4.4      47.398
2014    9       23     7   0    6.16   549.6    4.4      47.406
2014    9       23     7   5    6.16   549.6    4.4      47.414
2014    9       23     7  11    6.16   549.6    4.4      47.422
2014    9       23     7  16    6.16   549.6    4.4      47.429
2014    9       23     7  21    6.16   549.6    4.4      47.435
2014    9       23     7  27    6.16   549.6    4.4      47.441
2014    9       23     7  32    6.16   549.6    4.4      47.446
2014    9       23     7  38    6.16   549.6    4.4      47.451
2014    9       23     7  43    6.16   549.6    4.4      47.455
2014    9       23     7  49    6.16   549.6    4.4      47.459
2014    9       23     7  54    6.16   549.6    4.4      47.462
2014    9       23     7  59    6.16   549.6    4.4      47.465
2014    9       23     8   5    6.16   549.6    4.4      47.467
2014    9       23     8  10    6.16   549.6    4.4      47.469
2014    9       23     8  16    6.16   549.6    4.4      47.471
2014    9       23     8  21    6.16   549.5    4.4      47.472
2014    9       23     8  26    6.16   549.5    4.4      47.473
2014    9       23     8  32    6.16   549.5    4.4      47.473
2014    9       23     8  37    6.16   549.5    4.4      47.474
2014    9       23     8  43    6.16   549.5    4.4      47.473
2014    9       23     8  48    6.16   549.5    4.4      47.473
2014    9       23     8  53    6.16   549.5    4.4      47.472
2014    9       23     8  59    6.16   549.5    4.4      47.471
2014    9       23     9   4    6.16   549.5    4.4      47.470
2014    9       23     9  10    6.16   549.5    4.4      47.468
2014    9       23     9  15    6.17   549.5    4.4      47.467
2014    9       23     9  20    6.17   549.5    4.4      47.465
2014    9       23     9  26    6.17   549.5    4.4      47.462
2014    9       23     9  31    6.17   549.5    4.4      47.460
2014    9       23     9  37    6.17   549.5    4.4      47.458
2014    9       23     9  42    6.17   549.5    4.4      47.455
2014    9       23     9  47    6.17   549.5    4.4      47.453
2014    9       23     9  53    6.17   549.5    4.4      47.450
2014    9       23     9  58    6.17   549.5    4.4      47.447
2014    9       23    10   4    6.17   549.4    4.4      47.444
2014    9       23    10   9    6.17   549.4    4.4      47.441
2014    9       23    10  14    6.17   549.4    4.4      47.439
2014    9       23    10  20    6.17   549.4    4.4      47.436
2014    9       23    10  25    6.17   549.4    4.4      47.433
2014    9       23    10  31    6.17   549.4    4.4      47.430
2014    9       23    10  36    6.17   549.4    4.4      47.427
2014    9       23    10  42    6.17   549.4    4.4      47.423
2014    9       23    10  47    6.17   549.4    4.4      47.420
2014    9       23    10  52    6.17   549.4    4.4      47.417
2014    9       23    10  58    6.17   549.4    4.4      47.414
2014    9       23    11   3    6.17   549.4    4.4      47.411
2014    9       23    11   9    6.17   549.3    4.4      47.408
2014    9       23    11  14    6.17   549.3    4.4      47.405
2014    9       23    11  19    6.17   549.3    4.4      47.402
2014    9       23    11  25    6.17   549.3    4.4      47.398
2014    9       23    11  30    6.17   549.3    4.4      47.395
2014    9       23    11  36    6.17   549.3    4.4      47.392
2014    9       23    11  41    6.17   549.3    4.4      47.389
2014    9       23    11  46    6.18   549.2    4.4      47.386
2014    9       23    11  52    6.18   549.2    4.4      47.384
2014    9       23    11  57    6.18   549.2    4.4      47.381
2014    9       23    12   3    6.18   549.2    4.4      47.379
2014    9       23    12   8    6.18   549.2    4.4      47.378
2014    9       23    12  13    6.18   549.2    4.4      47.377
2014    9       23    12  19    6.18   549.1    4.4      47.376
2014    9       23    12  24    6.18   549.1    4.4      47.376
2014    9       23    12  30    6.18   549.1    4.4      47.377
2014    9       23    12  35    6.18   549.1    4.4      47.379
2014    9       23    12  40    6.18   549.1    4.4      47.381
2014    9       23    12  46    6.18   549.0    4.4      47.384
2014    9       23    12  51    6.18   549.0    4.4      47.389
2014    9       23    12  57    6.18   549.0    4.4      47.394
2014    9       23    13   2    6.18   549.0    4.4      47.401
2014    9       23    13   8    6.19   549.0    4.4      47.410
2014    9       23    13  13    6.19   549.0    4.4      47.420
2014    9       23    13  18    6.19   549.0    4.4      47.431
2014    9       23    13  24    6.19   548.9    4.4      47.444
2014    9       23    13  29    6.19   548.9    4.4      47.459
2014    9       23    13  35    6.19   548.9    4.4      47.476
2014    9       23    13  40    6.19   548.9    4.4      47.495
2014    9       23    13  45    6.19   548.9    4.4      47.515
2014    9       23    13  51    6.19   548.9    4.4      47.537
2014    9       23    13  56    6.19   548.9    4.4      47.560
2014    9       23    14   2    6.19   548.9    4.4      47.584
2014    9       23    14   7    6.20   548.9    4.4      47.608
2014    9       23    14  12    6.20   548.9    4.4      47.631
2014    9       23    14  18    6.20   548.9    4.4      47.653
2014    9       23    14  23    6.20   549.0    4.4      47.673
2014    9       23    14  29    6.20   549.0    4.4      47.694
2014    9       23    14  34    6.20   549.0    4.4      47.713
2014    9       23    14  39    6.20   549.0    4.4      47.732
2014    9       23    14  45    6.20   549.0    4.4      47.750
2014    9       23    14  50    6.20   549.0    4.4      47.767
2014    9       23    14  56    6.20   549.0    4.4      47.783
2014    9       23    15   1    6.21   549.0    4.4      47.799
2014    9       23    15   6    6.21   549.0    4.4      47.814
2014    9       23    15  12    6.21   549.0    4.4      47.828
2014    9       23    15  17    6.21   549.0    4.4      47.841
2014    9       23    15  23    6.21   549.1    4.4      47.853
2014    9       23    15  28    6.21   549.1    4.4      47.865
2014    9       23    15  34    6.21   549.1    4.4      47.875
2014    9       23    15  39    6.21   549.1    4.4      47.885
2014    9       23    15  44    6.21   549.1    4.4      47.895
2014    9       23    15  50    6.21   549.1    4.4      47.904
2014    9       23    15  55    6.21   549.1    4.4      47.912
2014    9       23    16   1    6.21   549.1    4.4      47.920
2014    9       23    16   6    6.22   549.2    4.4      47.927
2014    9       23    16  11    6.22   549.2    4.4      47.934
2014    9       23    16  17    6.22   549.2    4.4      47.940
2014    9       23    16  22    6.22   549.2    4.4      47.946
2014    9       23    16  28    6.22   549.2    4.4      47.952
2014    9       23    16  33    6.22   549.2    4.4      47.957
2014    9       23    16  38    6.22   549.2    4.4      47.962
2014    9       23    16  44    6.22   549.2    4.4      47.967
2014    9       23    16  49    6.22   549.3    4.4      47.971
2014    9       23    16  55    6.22   549.3    4.4      47.975
2014    9       23    17   0    6.22   549.3    4.4      47.979
2014    9       23    17   5    6.22   549.3    4.4      47.983
2014    9       23    17  11    6.23   549.3    4.4      47.986
2014    9       23    17  16    6.23   549.3    4.4      47.989
2014    9       23    17  22    6.23   549.3    4.4      47.993
2014    9       23    17  27    6.23   549.3    4.4      47.996
2014    9       23    17  32    6.23   549.4    4.4      47.999
2014    9       23    17  38    6.23   549.4    4.4      48.002
2014    9       23    17  43    6.23   549.4    4.4      48.005
2014    9       23    17  49    6.23   549.4    4.4      48.007
2014    9       23    17  54    6.23   549.4    4.4      48.010
2014    9       23    17  59    6.23   549.4    4.4      48.012
2014    9       23    18   5    6.23   549.4    4.4      48.014
2014    9       23    18  10    6.23   549.4    4.4      48.015
2014    9       23    18  16    6.24   549.5    4.4      48.017
2014    9       23    18  21    6.24   549.5    4.4      48.018
2014    9       23    18  27    6.24   549.5    4.4      48.020
2014    9       23    18  32    6.24   549.5    4.4      48.021
2014    9       23    18  37    6.24   549.5    4.4      48.022
2014    9       23    18  43    6.24   549.5    4.4      48.024
2014    9       23    18  48    6.24   549.5    4.4      48.025
2014    9       23    18  54    6.24   549.5    4.4      48.027
2014    9       23    18  59    6.24   549.5    4.4      48.030
2014    9       23    19   4    6.24   549.5    4.4      48.033
2014    9       23    19  10    6.25   549.5    4.4      48.036
2014    9       23    19  15    6.25   549.5    4.4      48.040
2014    9       23    19  21    6.25   549.5    4.4      48.045
2014    9       23    19  26    6.25   549.5    4.4      48.051
2014    9       23    19  31    6.25   549.5    4.4      48.058
2014    9       23    19  37    6.25   549.5    4.4      48.066
2014    9       23    19  42    6.25   549.5    4.4      48.076
2014    9       23    19  48    6.25   549.5    4.4      48.087
2014    9       23    19  53    6.25   549.5    4.4      48.099
2014    9       23    19  58    6.26   549.5    4.4      48.112
2014    9       23    20   4    6.26   549.6    4.4      48.127
2014    9       23    20   9    6.26   549.6    4.4      48.144
2014    9       23    20  15    6.26   549.6    4.4      48.163
2014    9       23    20  20    6.26   549.6    4.4      48.184
2014    9       23    20  26    6.26   549.6    4.4      48.206
2014    9       23    20  31    6.26   549.7    4.4      48.230
2014    9       23    20  36    6.26   549.7    4.4      48.255
2014    9       23    20  42    6.27   549.7    4.4      48.281
2014    9       23    20  47    6.27   549.7    4.4      48.306
2014    9       23    20  53    6.27   549.8    4.4      48.332
2014    9       23    20  58    6.27   549.8    4.4      48.357
2014    9       23    21   3    6.27   549.8    4.4      48.383
2014    9       23    21   9    6.27   549.9    4.4      48.410
2014    9       23    21  14    6.27   549.9    4.4      48.438
2014    9       23    21  20    6.28   549.9    4.4      48.465
2014    9       23    21  25    6.28   550.0    4.4      48.493
2014    9       23    21  30    6.28   550.0    4.4      48.520
2014    9       23    21  36    6.28   550.0    4.4      48.548
2014    9       23    21  41    6.28   550.0    4.4      48.574
2014    9       23    21  47    6.28   550.1    4.4      48.601
2014    9       23    21  52    6.29   550.1    4.4      48.627
2014    9       23    21  57    6.29   550.1    4.4      48.652
2014    9       23    22   3    6.29   550.2    4.4      48.676
2014    9       23    22   8    6.29   550.2    4.4      48.701
2014    9       23    22  14    6.29   550.3    4.4      48.725
2014    9       23    22  19    6.29   550.3    4.4      48.749
2014    9       23    22  24    6.29   550.3    4.4      48.773
2014    9       23    22  30    6.30   550.4    4.4      48.796
2014    9       23    22  35    6.30   550.4    4.4      48.819
2014    9       23    22  41    6.30   550.5    4.4      48.842
2014    9       23    22  46    6.30   550.5    4.4      48.865
2014    9       23    22  52    6.30   550.5    4.4      48.886
2014    9       23    22  57    6.30   550.6    4.4      48.908
2014    9       23    23   2    6.30   550.6    4.4      48.928
2014    9       23    23   8    6.31   550.7    4.4      48.949
2014    9       23    23  13    6.31   550.7    4.4      48.969
2014    9       23    23  19    6.31   550.8    4.4      48.989
2014    9       23    23  24    6.31   550.8    4.4      49.008
2014    9       23    23  29    6.31   550.9    4.4      49.028
2014    9       23    23  35    6.31   550.9    4.4      49.047
2014    9       23    23  40    6.32   551.0    4.4      49.066
2014    9       23    23  46    6.32   551.0    4.4      49.085
2014    9       23    23  51    6.32   551.1    4.4      49.104
2014    9       23    23  56    6.32   551.1    4.4      49.123
2014    9       24     0   2    6.32   551.2    4.4      49.142
2014    9       24     0   7    6.32   551.2    4.4      49.161
2014    9       24     0  13    6.32   551.3    4.4      49.181
2014    9       24     0  18    6.33   551.3    4.4      49.200
2014    9       24     0  23    6.33   551.4    4.4      49.219
2014    9       24     0  29    6.33   551.4    4.4      49.239
2014    9       24     0  34    6.33   551.5    4.4      49.258
2014    9       24     0  40    6.33   551.5    4.4      49.278
2014    9       24     0  45    6.33   551.6    4.4      49.298
2014    9       24     0  50    6.34   551.6    4.4      49.318
2014    9       24     0  56    6.34   551.7    4.4      49.339
2014    9       24     1   1    6.34   551.8    4.4      49.359
2014    9       24     1   7    6.34   551.8    4.4      49.380
2014    9       24     1  12    6.34   551.9    4.4      49.401
2014    9       24     1  17    6.34   552.0    4.4      49.423
2014    9       24     1  23    6.34   552.0    4.4      49.445
2014    9       24     1  28    6.35   552.1    4.4      49.467
2014    9       24     1  34    6.35   552.1    4.4      49.490
2014    9       24     1  39    6.35   552.2    4.4      49.513
2014    9       24     1  45    6.35   552.3    4.4      49.537
2014    9       24     1  50    6.35   552.3    4.4      49.561
2014    9       24     1  55    6.35   552.4    4.4      49.586
2014    9       24     2   1    6.36   552.5    4.4      49.611
2014    9       24     2   6    6.36   552.5    4.4      49.637
2014    9       24     2  12    6.36   552.6    4.5      49.664
2014    9       24     2  17    6.36   552.7    4.5      49.691
2014    9       24     2  22    6.36   552.7    4.5      49.720
2014    9       24     2  28    6.36   552.8    4.5      49.750
2014    9       24     2  33    6.37   552.8    4.5      49.781
2014    9       24     2  39    6.37   552.9    4.5      49.812
2014    9       24     2  44    6.37   553.0    4.5      49.846
2014    9       24     2  49    6.37   553.0    4.5      49.880
2014    9       24     2  55    6.37   553.1    4.5      49.916
2014    9       24     3   0    6.37   553.2    4.5      49.955
2014    9       24     3   6    6.38   553.2    4.5      49.994
2014    9       24     3  11    6.38   553.3    4.5      50.034
2014    9       24     3  16    6.38   553.4    4.5      50.075
2014    9       24     3  22    6.38   553.5    4.5      50.117
2014    9       24     3  27    6.38   553.5    4.5      50.158
2014    9       24     3  33    6.39   553.6    4.5      50.200
2014    9       24     3  38    6.39   553.7    4.5      50.243
2014    9       24     3  44    6.39   553.8    4.5      50.286
2014    9       24     3  49    6.39   553.9    4.5      50.329
2014    9       24     3  54    6.39   554.0    4.5      50.372
2014    9       24     4   0    6.40   554.1    4.5      50.414
2014    9       24     4   5    6.40   554.1    4.5      50.456
2014    9       24     4  11    6.40   554.2    4.5      50.496
2014    9       24     4  16    6.40   554.3    4.5      50.534
2014    9       24     4  21    6.40   554.4    4.5      50.572
2014    9       24     4  27    6.41   554.5    4.5      50.609
2014    9       24     4  32    6.41   554.6    4.5      50.644
2014    9       24     4  38    6.41   554.7    4.5      50.679
2014    9       24     4  43    6.41   554.8    4.5      50.713
2014    9       24     4  48    6.41   554.9    4.5      50.746
2014    9       24     4  54    6.42   555.0    4.5      50.779
2014    9       24     4  59    6.42   555.0    4.5      50.811
2014    9       24     5   5    6.42   555.1    4.5      50.842
2014    9       24     5  10    6.42   555.2    4.5      50.873
2014    9       24     5  15    6.42   555.3    4.5      50.904
2014    9       24     5  21    6.43   555.4    4.5      50.934
2014    9       24     5  26    6.43   555.5    4.5      50.964
2014    9       24     5  32    6.43   555.6    4.5      50.993
2014    9       24     5  37    6.43   555.7    4.5      51.022
2014    9       24     5  42    6.44   555.8    4.5      51.051
2014    9       24     5  48    6.44   555.9    4.5      51.080
2014    9       24     5  53    6.44   556.0    4.5      51.109
2014    9       24     5  59    6.44   556.1    4.5      51.137
2014    9       24     6   4    6.45   556.2    4.5      51.166
2014    9       24     6  10    6.45   556.3    4.5      51.195
2014    9       24     6  15    6.45   556.4    4.5      51.224
2014    9       24     6  20    6.45   556.5    4.5      51.253
2014    9       24     6  26    6.46   556.6    4.5      51.282
2014    9       24     6  31    6.46   556.7    4.5      51.312
2014    9       24     6  37    6.46   556.8    4.5      51.343
2014    9       24     6  42    6.46   556.9    4.5      51.374
2014    9       24     6  47    6.47   557.0    4.5      51.406
2014    9       24     6  53    6.47   557.1    4.5      51.438
2014    9       24     6  58    6.47   557.3    4.5      51.471
2014    9       24     7   4    6.48   557.4    4.5      51.505
2014    9       24     7   9    6.48   557.5    4.5      51.540
2014    9       24     7  14    6.48   557.6    4.5      51.576
2014    9       24     7  20    6.49   557.7    4.5      51.613
2014    9       24     7  25    6.49   557.9    4.5      51.651
2014    9       24     7  31    6.49   558.0    4.5      51.690
2014    9       24     7  36    6.50   558.1    4.5      51.730
2014    9       24     7  41    6.50   558.2    4.5      51.771
2014    9       24     7  47    6.50   558.4    4.5      51.813
2014    9       24     7  52    6.50   558.5    4.5      51.857
2014    9       24     7  58    6.51   558.6    4.5      51.901
2014    9       24     8   3    6.51   558.8    4.5      51.947
2014    9       24     8   8    6.51   558.9    4.5      51.994
2014    9       24     8  14    6.52   559.1    4.5      52.042
2014    9       24     8  19    6.52   559.2    4.5      52.091
2014    9       24     8  25    6.52   559.4    4.5      52.141
2014    9       24     8  30    6.53   559.5    4.5      52.192
2014    9       24     8  35    6.53   559.7    4.5      52.244
2014    9       24     8  41    6.53   559.8    4.5      52.297
2014    9       24     8  46    6.53   560.0    4.5      52.350
2014    9       24     8  52    6.54   560.1    4.5      52.404
2014    9       24     8  57    6.54   560.3    4.5      52.459
2014    9       24     9   3    6.54   560.5    4.5      52.514
2014    9       24     9   8    6.54   560.6    4.5      52.571
2014    9       24     9  13    6.55   560.8    4.5      52.628
2014    9       24     9  19    6.55   561.0    4.5      52.686
2014    9       24     9  24    6.55   561.1    4.5      52.745
2014    9       24     9  30    6.55   561.3    4.5      52.805
2014    9       24     9  35    6.56   561.4    4.5      52.865
2014    9       24     9  40    6.56   561.6    4.5      52.925
2014    9       24     9  46    6.56   561.8    4.5      52.987
2014    9       24     9  51    6.56   561.9    4.5      53.050
2014    9       24     9  57    6.57   562.1    4.5      53.115
2014    9       24    10   2    6.57   562.3    4.5      53.181
2014    9       24    10   7    6.57   562.4    4.5      53.249
2014    9       24    10  13    6.58   562.6    4.5      53.319
2014    9       24    10  18    6.58   562.8    4.5      53.390
2014    9       24    10  24    6.58   563.0    4.5      53.464
2014    9       24    10  29    6.58   563.2    4.6      53.539
2014    9       24    10  34    6.59   563.4    4.6      53.618
2014    9       24    10  40    6.59   563.6    4.6      53.698
2014    9       24    10  45    6.59   563.8    4.6      53.779
2014    9       24    10  51    6.59   564.0    4.6      53.861
2014    9       24    10  56    6.60   564.2    4.6      53.940
2014    9       24    11   1    6.60   564.4    4.6      54.016
2014    9       24    11   7    6.60   564.6    4.6      54.090
2014    9       24    11  12    6.60   564.8    4.6      54.162
2014    9       24    11  18    6.61   565.0    4.6      54.232
2014    9       24    11  23    6.61   565.2    4.6      54.299
2014    9       24    11  29    6.61   565.4    4.6      54.365
2014    9       24    11  34    6.61   565.7    4.6      54.428
2014    9       24    11  39    6.62   565.9    4.6      54.490
2014    9       24    11  45    6.62   566.1    4.6      54.550
2014    9       24    11  50    6.62   566.3    4.6      54.608
2014    9       24    11  56    6.62   566.5    4.6      54.665
2014    9       24    12   1    6.62   566.7    4.6      54.720
2014    9       24    12   6    6.63   566.9    4.6      54.774
2014    9       24    12  12    6.63   567.1    4.6      54.826
2014    9       24    12  17    6.63   567.4    4.5      54.877
2014    9       24    12  23    6.63   567.6    4.5      54.928
2014    9       24    12  28    6.64   567.8    4.5      54.976
2014    9       24    12  33    6.64   568.0    4.5      55.024
2014    9       24    12  39    6.64   568.2    4.5      55.071
2014    9       24    12  44    6.64   568.5    4.5      55.116
2014    9       24    12  50    6.65   568.7    4.5      55.161
2014    9       24    12  55    6.65   568.9    4.5      55.205
2014    9       24    13   0    6.65   569.1    4.5      55.248
2014    9       24    13   6    6.65   569.3    4.5      55.290
2014    9       24    13  11    6.66   569.6    4.5      55.331
2014    9       24    13  17    6.66   569.8    4.5      55.371
2014    9       24    13  22    6.66   570.0    4.5      55.411
2014    9       24    13  27    6.66   570.2    4.5      55.450
2014    9       24    13  33    6.67   570.5    4.5      55.489
2014    9       24    13  38    6.67   570.7    4.5      55.526
2014    9       24    13  44    6.67   570.9    4.5      55.563
2014    9       24    13  49    6.67   571.2    4.5      55.600
2014    9       24    13  54    6.68   571.4    4.5      55.637
2014    9       24    14   0    6.68   571.6    4.5      55.673
2014    9       24    14   5    6.68   571.8    4.5      55.708
2014    9       24    14  11    6.68   572.1    4.5      55.744
2014    9       24    14  16    6.69   572.3    4.5      55.779
2014    9       24    14  22    6.69   572.5    4.5      55.814
2014    9       24    14  27    6.69   572.8    4.5      55.849
2014    9       24    14  32    6.69   573.0    4.5      55.885
2014    9       24    14  38    6.70   573.2    4.5      55.920
2014    9       24    14  43    6.70   573.4    4.5      55.956
2014    9       24    14  49    6.70   573.7    4.5      55.992
2014    9       24    14  54    6.70   573.9    4.5      56.029
2014    9       24    14  59    6.70   574.1    4.5      56.067
2014    9       24    15   5    6.71   574.4    4.5      56.106
2014    9       24    15  10    6.71   574.6    4.5      56.145
2014    9       24    15  16    6.71   574.8    4.5      56.186
2014    9       24    15  21    6.71   575.1    4.5      56.229
2014    9       24    15  26    6.72   575.3    4.5      56.273
2014    9       24    15  32    6.72   575.6    4.5      56.319
2014    9       24    15  37    6.72   575.8    4.5      56.367
2014    9       24    15  43    6.72   576.1    4.5      56.417
2014    9       24    15  48    6.72   576.3    4.5      56.468
2014    9       24    15  53    6.73   576.6    4.5      56.522
2014    9       24    15  59    6.73   576.8    4.5      56.577
2014    9       24    16   4    6.73   577.1    4.5      56.632
2014    9       24    16  10    6.73   577.4    4.5      56.689
2014    9       24    16  15    6.73   577.6    4.4      56.747
2014    9       24    16  20    6.73   577.9    4.4      56.807
2014    9       24    16  26    6.74   578.2    4.4      56.869
2014    9       24    16  31    6.74   578.5    4.4      56.932
2014    9       24    16  37    6.74   578.8    4.4      56.997
2014    9       24    16  42    6.74   579.0    4.4      57.064
2014    9       24    16  48    6.74   579.3    4.4      57.132
2014    9       24    16  53    6.74   579.6    4.4      57.202
2014    9       24    16  58    6.74   579.9    4.4      57.273
2014    9       24    17   4    6.74   580.2    4.4      57.344
2014    9       24    17   9    6.74   580.5    4.4      57.416
2014    9       24    17  15    6.74   580.8    4.4      57.489
2014    9       24    17  20    6.74   581.1    4.4      57.561
2014    9       24    17  25    6.74   581.4    4.4      57.633
2014    9       24    17  31    6.74   581.7    4.4      57.704
2014    9       24    17  36    6.74   582.0    4.4      57.776
2014    9       24    17  42    6.75   582.3    4.4      57.849
2014    9       24    17  47    6.75   582.6    4.4      57.923
2014    9       24    17  52    6.75   582.9    4.4      57.998
2014    9       24    17  58    6.75   583.2    4.4      58.074
2014    9       24    18   3    6.75   583.5    4.4      58.151
2014    9       24    18   9    6.74   583.8    4.4      58.229
2014    9       24    18  14    6.74   584.1    4.4      58.310
2014    9       24    18  19    6.74   584.4    4.4      58.394
2014    9       24    18  25    6.74   584.7    4.4      58.479
2014    9       24    18  30    6.74   585.0    4.4      58.566
2014    9       24    18  36    6.74   585.3    4.4      58.654
2014    9       24    18  41    6.74   585.6    4.4      58.742
2014    9       24    18  46    6.74   585.9    4.4      58.829
2014    9       24    18  52    6.74   586.2    4.4      58.916
2014    9       24    18  57    6.74   586.5    4.4      59.002
2014    9       24    19   3    6.74   586.8    4.4      59.087
2014    9       24    19   8    6.74   587.1    4.4      59.171
2014    9       24    19  14    6.74   587.4    4.4      59.253
2014    9       24    19  19    6.74   587.7    4.4      59.334
2014    9       24    19  24    6.74   588.0    4.4      59.411
2014    9       24    19  30    6.74   588.3    4.4      59.486
2014    9       24    19  35    6.74   588.6    4.4      59.558
2014    9       24    19  41    6.74   588.9    4.4      59.628
2014    9       24    19  46    6.74   589.2    4.4      59.695
2014    9       24    19  51    6.74   589.5    4.4      59.760
2014    9       24    19  57    6.74   589.9    4.4      59.822
2014    9       24    20   2    6.74   590.2    4.4      59.883
2014    9       24    20   8    6.74   590.5    4.4      59.940
2014    9       24    20  13    6.74   590.8    4.4      59.996
2014    9       24    20  18    6.74   591.1    4.4      60.050
2014    9       24    20  24    6.74   591.5    4.4      60.101
2014    9       24    20  29    6.74   591.8    4.4      60.151
2014    9       24    20  35    6.74   592.1    4.4      60.199
2014    9       24    20  40    6.74   592.4    4.3      60.245
2014    9       24    20  45    6.74   592.7    4.3      60.290
2014    9       24    20  51    6.74   593.1    4.3      60.333
2014    9       24    20  56    6.74   593.4    4.3      60.374
2014    9       24    21   2    6.74   593.7    4.3      60.415
2014    9       24    21   7    6.74   594.0    4.3      60.454
2014    9       24    21  12    6.74   594.3    4.3      60.491
2014    9       24    21  18    6.74   594.7    4.3      60.528
2014    9       24    21  23    6.74   595.0    4.3      60.563
2014    9       24    21  29    6.74   595.3    4.3      60.597
2014    9       24    21  34    6.74   595.6    4.3      60.631
2014    9       24    21  39    6.74   596.0    4.3      60.663
2014    9       24    21  45    6.74   596.3    4.3      60.694
2014    9       24    21  50    6.73   596.6    4.3      60.725
2014    9       24    21  56    6.73   597.0    4.3      60.754
2014    9       24    22   1    6.73   597.3    4.2      60.783
2014    9       24    22   7    6.73   597.6    4.2      60.810
2014    9       24    22  12    6.73   598.0    4.2      60.837
2014    9       24    22  17    6.73   598.3    4.2      60.863
2014    9       24    22  23    6.73   598.6    4.2      60.888
2014    9       24    22  28    6.73   599.0    4.2      60.912
2014    9       24    22  34    6.73   599.3    4.2      60.936
2014    9       24    22  39    6.73   599.6    4.2      60.958
2014    9       24    22  44    6.73   600.0    4.2      60.980
2014    9       24    22  50    6.73   600.3    4.2      61.001
2014    9       24    22  55    6.72   600.6    4.2      61.022
2014    9       24    23   1    6.72   600.9    4.2      61.042
2014    9       24    23   6    6.72   601.3    4.1      61.062
2014    9       24    23  11    6.72   601.6    4.1      61.081
2014    9       24    23  17    6.72   601.9    4.1      61.101
2014    9       24    23  22    6.72   602.3    4.1      61.120
2014    9       24    23  28    6.72   602.6    4.1      61.140
2014    9       24    23  33    6.71   603.0    4.1      61.160
2014    9       24    23  38    6.71   603.3    4.1      61.180
2014    9       24    23  44    6.71   603.6    4.1      61.199
2014    9       24    23  49    6.71   604.0    4.1      61.218
2014    9       24    23  55    6.71   604.3    4.1      61.235
2014    9       25     0   0    6.71   604.7    4.1      61.252
2014    9       25     0   5    6.70   605.0    4.1      61.267
2014    9       25     0  11    6.70   605.3    4.0      61.282
2014    9       25     0  16    6.70   605.7    4.0      61.295
2014    9       25     0  22    6.70   606.0    4.0      61.308
2014    9       25     0  27    6.69   606.3    4.0      61.320
2014    9       25     0  33    6.69   606.7    4.0      61.332
2014    9       25     0  38    6.69   607.0    4.0      61.343
2014    9       25     0  43    6.69   607.3    4.0      61.353
2014    9       25     0  49    6.68   607.6    4.0      61.363
2014    9       25     0  54    6.68   608.0    4.0      61.372
2014    9       25     1   0    6.68   608.3    4.0      61.380
2014    9       25     1   5    6.68   608.6    4.0      61.388
2014    9       25     1  10    6.67   608.9    4.0      61.395
2014    9       25     1  16    6.67   609.2    3.9      61.402
2014    9       25     1  21    6.67   609.5    3.9      61.408
2014    9       25     1  27    6.66   609.8    3.9      61.414
2014    9       25     1  32    6.66   610.1    3.9      61.420
2014    9       25     1  37    6.66   610.4    3.9      61.425
2014    9       25     1  43    6.65   610.7    3.9      61.431
2014    9       25     1  48    6.65   611.0    3.9      61.436
2014    9       25     1  54    6.65   611.3    3.9      61.441
2014    9       25     1  59    6.64   611.6    3.9      61.446
2014    9       25     2   4    6.64   611.9    3.9      61.451
2014    9       25     2  10    6.64   612.1    3.9      61.457
2014    9       25     2  15    6.63   612.4    3.9      61.463
2014    9       25     2  21    6.63   612.6    3.9      61.469
2014    9       25     2  26    6.63   612.9    3.9      61.477
2014    9       25     2  31    6.62   613.2    3.9      61.485
2014    9       25     2  37    6.62   613.4    3.8      61.494
2014    9       25     2  42    6.62   613.7    3.8      61.505
2014    9       25     2  48    6.62   613.9    3.8      61.517
2014    9       25     2  53    6.61   614.1    3.8      61.530
2014    9       25     2  59    6.61   614.4    3.8      61.545
2014    9       25     3   4    6.61   614.6    3.8      61.562
2014    9       25     3   9    6.60   614.9    3.8      61.580
2014    9       25     3  15    6.60   615.1    3.8      61.601
2014    9       25     3  20    6.60   615.3    3.8      61.623
2014    9       25     3  26    6.59   615.6    3.8      61.645
2014    9       25     3  31    6.59   615.8    3.8      61.670
2014    9       25     3  36    6.59   616.0    3.8      61.696
2014    9       25     3  42    6.58   616.3    3.8      61.722
2014    9       25     3  47    6.58   616.5    3.8      61.749
2014    9       25     3  53    6.58   616.7    3.8      61.776
2014    9       25     3  58    6.58   617.0    3.8      61.804
2014    9       25     4   3    6.57   617.2    3.8      61.830
2014    9       25     4   9    6.57   617.4    3.8      61.855
2014    9       25     4  14    6.57   617.7    3.8      61.879
2014    9       25     4  20    6.56   617.9    3.8      61.900
2014    9       25     4  25    6.56   618.1    3.8      61.921
2014    9       25     4  30    6.56   618.4    3.8      61.941
2014    9       25     4  36    6.55   618.6    3.8      61.959
2014    9       25     4  41    6.55   618.8    3.8      61.977
2014    9       25     4  47    6.55   619.0    3.8      61.995
2014    9       25     4  52    6.54   619.3    3.8      62.012
2014    9       25     4  57    6.54   619.5    3.7      62.028
2014    9       25     5   3    6.54   619.7    3.7      62.044
2014    9       25     5   8    6.53   619.9    3.7      62.060
2014    9       25     5  14    6.53   620.1    3.7      62.075
2014    9       25     5  19    6.53   620.4    3.7      62.091
2014    9       25     5  24    6.52   620.6    3.7      62.106
2014    9       25     5  30    6.52   620.8    3.7      62.121
2014    9       25     5  35    6.52   621.0    3.7      62.136
2014    9       25     5  41    6.51   621.2    3.7      62.151
2014    9       25     5  46    6.51   621.4    3.7      62.165
2014    9       25     5  52    6.51   621.6    3.7      62.178
2014    9       25     5  57    6.50   621.8    3.7      62.192
2014    9       25     6   2    6.50   622.0    3.7      62.205
2014    9       25     6   8    6.50   622.3    3.7      62.217
2014    9       25     6  13    6.49   622.5    3.7      62.228
2014    9       25     6  19    6.49   622.7    3.7      62.240
2014    9       25     6  24    6.49   622.9    3.7      62.250
2014    9       25     6  29    6.48   623.1    3.7      62.260
2014    9       25     6  35    6.48   623.3    3.7      62.269
2014    9       25     6  40    6.48   623.5    3.7      62.277
2014    9       25     6  46    6.47   623.7    3.6      62.284
2014    9       25     6  51    6.47   623.8    3.6      62.291
2014    9       25     6  56    6.46   624.0    3.6      62.298
2014    9       25     7   2    6.46   624.2    3.6      62.303
2014    9       25     7   7    6.46   624.4    3.6      62.309
2014    9       25     7  13    6.45   624.6    3.6      62.313
2014    9       25     7  18    6.45   624.8    3.6      62.316
2014    9       25     7  23    6.45   625.0    3.6      62.319
2014    9       25     7  29    6.44   625.2    3.6      62.322
2014    9       25     7  34    6.44   625.4    3.6      62.323
2014    9       25     7  40    6.44   625.5    3.6      62.324
2014    9       25     7  45    6.43   625.7    3.6      62.324
2014    9       25     7  50    6.43   625.9    3.6      62.322
2014    9       25     7  56    6.42   626.1    3.6      62.320
2014    9       25     8   1    6.42   626.2    3.6      62.316
2014    9       25     8   7    6.42   626.4    3.6      62.312
2014    9       25     8  12    6.41   626.6    3.6      62.306
2014    9       25     8  17    6.41   626.7    3.6      62.300
2014    9       25     8  23    6.40   626.9    3.5      62.293
2014    9       25     8  28    6.40   627.1    3.5      62.285
2014    9       25     8  34    6.40   627.2    3.5      62.276
2014    9       25     8  39    6.39   627.4    3.5      62.268
2014    9       25     8  45    6.39   627.5    3.5      62.258
2014    9       25     8  50    6.38   627.7    3.5      62.249
2014    9       25     8  55    6.38   627.8    3.5      62.239
2014    9       25     9   1    6.38   628.0    3.5      62.229
2014    9       25     9   6    6.37   628.1    3.5      62.218
2014    9       25     9  12    6.37   628.3    3.5      62.207
2014    9       25     9  17    6.36   628.4    3.5      62.196
2014    9       25     9  22    6.36   628.6    3.5      62.185
2014    9       25     9  28    6.36   628.7    3.5      62.173
2014    9       25     9  33    6.35   628.9    3.5      62.160
2014    9       25     9  39    6.35   629.0    3.5      62.147
2014    9       25     9  44    6.34   629.2    3.5      62.133
2014    9       25     9  49    6.34   629.3    3.5      62.117
2014    9       25     9  55    6.33   629.5    3.5      62.101
2014    9       25    10   0    6.33   629.6    3.5      62.084
2014    9       25    10   6    6.32   629.8    3.5      62.066
2014    9       25    10  11    6.32   629.9    3.4      62.048
2014    9       25    10  16    6.32   630.1    3.4      62.029
2014    9       25    10  22    6.31   630.2    3.4      62.009
2014    9       25    10  27    6.31   630.4    3.4      61.989
2014    9       25    10  33    6.30   630.5    3.4      61.968
2014    9       25    10  38    6.30   630.6    3.4      61.946
2014    9       25    10  43    6.29   630.8    3.4      61.924
2014    9       25    10  49    6.29   630.9    3.4      61.902
2014    9       25    10  54    6.28   631.0    3.4      61.880
2014    9       25    11   0    6.28   631.2    3.4      61.857
2014    9       25    11   5    6.27   631.3    3.4      61.834
2014    9       25    11  11    6.27   631.4    3.4      61.811
2014    9       25    11  16    6.26   631.5    3.4      61.787
2014    9       25    11  21    6.26   631.7    3.4      61.764
2014    9       25    11  27    6.25   631.8    3.4      61.741
2014    9       25    11  32    6.25   631.9    3.4      61.718
2014    9       25    11  38    6.25   632.0    3.4      61.695
2014    9       25    11  43    6.24   632.1    3.4      61.672
2014    9       25    11  48    6.24   632.2    3.4      61.649
2014    9       25    11  54    6.23   632.3    3.4      61.626
2014    9       25    11  59    6.23   632.4    3.3      61.604
2014    9       25    12   5    6.22   632.5    3.3      61.582
2014    9       25    12  10    6.22   632.6    3.3      61.561
2014    9       25    12  15    6.21   632.7    3.3      61.540
2014    9       25    12  21    6.21   632.8    3.3      61.520
2014    9       25    12  26    6.20   632.9    3.3      61.500
2014    9       25    12  32    6.20   633.0    3.3      61.481
2014    9       25    12  37    6.19   633.1    3.3      61.463
2014    9       25    12  42    6.19   633.2    3.3      61.446
2014    9       25    12  48    6.19   633.3    3.3      61.430
2014    9       25    12  53    6.18   633.3    3.3      61.414
2014    9       25    12  59    6.18   633.4    3.3      61.400
2014    9       25    13   4    6.17   633.5    3.3      61.386
2014    9       25    13   9    6.17   633.5    3.3      61.373
2014    9       25    13  15    6.16   633.6    3.3      61.361
2014    9       25    13  20    6.16   633.7    3.3      61.351
2014    9       25    13  26    6.15   633.7    3.3      61.341
2014    9       25    13  31    6.15   633.8    3.3      61.332
2014    9       25    13  36    6.15   633.9    3.3      61.324
2014    9       25    13  42    6.14   633.9    3.3      61.317
2014    9       25    13  47    6.14   634.0    3.3      61.311
2014    9       25    13  53    6.13   634.0    3.3      61.306
2014    9       25    13  58    6.13   634.1    3.3      61.301
2014    9       25    14   4    6.13   634.1    3.3      61.297
2014    9       25    14   9    6.12   634.2    3.3      61.294
2014    9       25    14  14    6.12   634.2    3.3      61.292
2014    9       25    14  20    6.11   634.3    3.3      61.290
2014    9       25    14  25    6.11   634.3    3.3      61.289
2014    9       25    14  31    6.11   634.4    3.3      61.287
2014    9       25    14  36    6.10   634.4    3.3      61.286
2014    9       25    14  41    6.10   634.5    3.3      61.285
2014    9       25    14  47    6.10   634.5    3.3      61.283
2014    9       25    14  52    6.09   634.5    3.3      61.281
2014    9       25    14  58    6.09   634.6    3.3      61.279
2014    9       25    15   3    6.09   634.6    3.2      61.276
2014    9       25    15   8    6.08   634.7    3.2      61.272
2014    9       25    15  14    6.08   634.7    3.2      61.267
2014    9       25    15  19    6.08   634.8    3.2      61.261
2014    9       25    15  25    6.07   634.8    3.2      61.255
2014    9       25    15  30    6.07   634.8    3.2      61.247
2014    9       25    15  35    6.07   634.9    3.2      61.239
2014    9       25    15  41    6.06   634.9    3.2      61.229
2014    9       25    15  46    6.06   635.0    3.2      61.219
2014    9       25    15  52    6.06   635.0    3.2      61.207
2014    9       25    15  57    6.05   635.0    3.2      61.196
2014    9       25    16   3    6.05   635.1    3.2      61.183
2014    9       25    16   8    6.05   635.1    3.2      61.170
2014    9       25    16  13    6.04   635.2    3.2      61.156
2014    9       25    16  19    6.04   635.2    3.2      61.141
2014    9       25    16  24    6.04   635.2    3.2      61.126
2014    9       25    16  30    6.03   635.3    3.2      61.111
2014    9       25    16  35    6.03   635.3    3.2      61.095
2014    9       25    16  40    6.03   635.4    3.2      61.078
2014    9       25    16  46    6.02   635.4    3.2      61.062
2014    9       25    16  51    6.02   635.4    3.2      61.045
2014    9       25    16  57    6.02   635.5    3.2      61.027
2014    9       25    17   2    6.01   635.5    3.2      61.010
2014    9       25    17   7    6.01   635.6    3.2      60.992
2014    9       25    17  13    6.01   635.6    3.2      60.974
2014    9       25    17  18    6.00   635.6    3.2      60.957
2014    9       25    17  24    6.00   635.7    3.2      60.939
2014    9       25    17  29    6.00   635.7    3.2      60.921
2014    9       25    17  34    5.99   635.7    3.2      60.904
2014    9       25    17  40    5.99   635.8    3.2      60.886
2014    9       25    17  45    5.99   635.8    3.2      60.869
2014    9       25    17  51    5.98   635.8    3.2      60.852
2014    9       25    17  56    5.98   635.9    3.2      60.835
2014    9       25    18   1    5.98   635.9    3.2      60.819
2014    9       25    18   7    5.98   635.9    3.2      60.803
2014    9       25    18  12    5.97   635.9    3.2      60.787
2014    9       25    18  18    5.97   636.0    3.2      60.772
2014    9       25    18  23    5.97   636.0    3.2      60.757
2014    9       25    18  28    5.96   636.0    3.2      60.743
2014    9       25    18  34    5.96   636.0    3.2      60.729
2014    9       25    18  39    5.96   636.0    3.2      60.716
2014    9       25    18  45    5.95   636.1    3.2      60.703
2014    9       25    18  50    5.95   636.1    3.2      60.690
2014    9       25    18  56    5.95   636.1    3.2      60.678
2014    9       25    19   1    5.95   636.1    3.2      60.667
2014    9       25    19   6    5.94   636.1    3.2      60.656
2014    9       25    19  12    5.94   636.1    3.2      60.646
2014    9       25    19  17    5.94   636.1    3.2      60.636
2014    9       25    19  23    5.93   636.2    3.2      60.627
2014    9       25    19  28    5.93   636.2    3.2      60.618
2014    9       25    19  33    5.93   636.2    3.2      60.609
2014    9       25    19  39    5.93   636.2    3.1      60.602
2014    9       25    19  44    5.92   636.2    3.1      60.594
2014    9       25    19  50    5.92   636.2    3.1      60.588
2014    9       25    19  55    5.92   636.2    3.1      60.581
2014    9       25    20   0    5.92   636.2    3.1      60.576
2014    9       25    20   6    5.91   636.2    3.1      60.571
2014    9       25    20  11    5.91   636.2    3.1      60.566
2014    9       25    20  17    5.91   636.2    3.1      60.562
2014    9       25    20  22    5.91   636.2    3.1      60.558
2014    9       25    20  27    5.90   636.2    3.1      60.555
2014    9       25    20  33    5.90   636.2    3.1      60.552
2014    9       25    20  38    5.90   636.2    3.1      60.549
2014    9       25    20  44    5.90   636.2    3.1      60.547
2014    9       25    20  49    5.90   636.2    3.1      60.545
2014    9       25    20  54    5.89   636.2    3.1      60.543
2014    9       25    21   0    5.89   636.2    3.1      60.542
2014    9       25    21   5    5.89   636.2    3.1      60.541
2014    9       25    21  11    5.89   636.2    3.1      60.540
2014    9       25    21  16    5.89   636.2    3.1      60.539
2014    9       25    21  21    5.88   636.2    3.1      60.538
2014    9       25    21  27    5.88   636.2    3.1      60.538
2014    9       25    21  32    5.88   636.2    3.1      60.537
2014    9       25    21  38    5.88   636.2    3.1      60.537
2014    9       25    21  43    5.88   636.2    3.1      60.536
2014    9       25    21  49    5.87   636.2    3.1      60.536
2014    9       25    21  54    5.87   636.2    3.1      60.535
2014    9       25    21  59    5.87   636.2    3.1      60.535
2014    9       25    22   5    5.87   636.2    3.1      60.534
2014    9       25    22  10    5.87   636.2    3.1      60.533
2014    9       25    22  16    5.86   636.2    3.1      60.532
2014    9       25    22  21    5.86   636.2    3.1      60.531
2014    9       25    22  26    5.86   636.2    3.1      60.530
2014    9       25    22  32    5.86   636.1    3.1      60.528
2014    9       25    22  37    5.86   636.1    3.1      60.527
2014    9       25    22  43    5.86   636.1    3.1      60.525
2014    9       25    22  48    5.85   636.1    3.1      60.522
2014    9       25    22  53    5.85   636.1    3.1      60.520
2014    9       25    22  59    5.85   636.1    3.1      60.517
2014    9       25    23   4    5.85   636.1    3.1      60.514
2014    9       25    23  10    5.85   636.1    3.1      60.511
2014    9       25    23  15    5.84   636.1    3.1      60.507
2014    9       25    23  20    5.84   636.1    3.1      60.503
2014    9       25    23  26    5.84   636.1    3.1      60.499
2014    9       25    23  31    5.84   636.1    3.1      60.494
2014    9       25    23  37    5.84   636.1    3.1      60.489
2014    9       25    23  42    5.84   636.1    3.1      60.484
2014    9       25    23  47    5.83   636.1    3.1      60.479
2014    9       25    23  53    5.83   636.1    3.1      60.474
2014    9       25    23  58    5.83   636.0    3.1      60.468
2014    9       26     0   4    5.83   636.0    3.1      60.462
2014    9       26     0   9    5.83   636.0    3.1      60.457
2014    9       26     0  15    5.83   636.0    3.1      60.451
2014    9       26     0  20    5.82   636.0    3.1      60.445
2014    9       26     0  25    5.82   636.0    3.1      60.439
2014    9       26     0  31    5.82   636.0    3.1      60.433
2014    9       26     0  36    5.82   636.0    3.1      60.428
2014    9       26     0  42    5.82   636.0    3.1      60.422
2014    9       26     0  47    5.81   636.0    3.1      60.417
2014    9       26     0  52    5.81   635.9    3.1      60.412
2014    9       26     0  58    5.81   635.9    3.1      60.407
2014    9       26     1   3    5.81   635.9    3.1      60.402
2014    9       26     1   9    5.81   635.9    3.1      60.398
2014    9       26     1  14    5.81   635.9    3.1      60.393
2014    9       26     1  19    5.80   635.9    3.1      60.389
2014    9       26     1  25    5.80   635.9    3.1      60.385
2014    9       26     1  30    5.80   635.9    3.1      60.381
2014    9       26     1  36    5.80   635.8    3.1      60.377
2014    9       26     1  41    5.80   635.8    3.1      60.374
2014    9       26     1  46    5.80   635.8    3.1      60.370
2014    9       26     1  52    5.79   635.8    3.1      60.367
2014    9       26     1  57    5.79   635.8    3.1      60.364
2014    9       26     2   3    5.79   635.8    3.1      60.361
2014    9       26     2   8    5.79   635.8    3.1      60.358
2014    9       26     2  13    5.79   635.7    3.1      60.355
2014    9       26     2  19    5.78   635.7    3.1      60.353
2014    9       26     2  24    5.78   635.7    3.1      60.351
2014    9       26     2  30    5.78   635.7    3.1      60.349
2014    9       26     2  35    5.78   635.6    3.1      60.346
2014    9       26     2  40    5.78   635.6    3.1      60.344
2014    9       26     2  46    5.78   635.6    3.1      60.342
2014    9       26     2  51    5.77   635.5    3.1      60.339
2014    9       26     2  57    5.77   635.5    3.1      60.336
2014    9       26     3   2    5.77   635.5    3.1      60.333
2014    9       26     3   8    5.77   635.5    3.1      60.330
2014    9       26     3  13    5.77   635.4    3.1      60.327
2014    9       26     3  18    5.77   635.4    3.1      60.323
2014    9       26     3  24    5.76   635.4    3.1      60.320
2014    9       26     3  29    5.76   635.3    3.1      60.316
2014    9       26     3  35    5.76   635.3    3.1      60.313
2014    9       26     3  40    5.76   635.3    3.1      60.309
2014    9       26     3  45    5.76   635.2    3.1      60.305
2014    9       26     3  51    5.76   635.2    3.1      60.300
2014    9       26     3  56    5.75   635.2    3.1      60.296
2014    9       26     4   2    5.75   635.1    3.1      60.291
2014    9       26     4   7    5.75   635.1    3.1      60.287
2014    9       26     4  12    5.75   635.1    3.1      60.281
2014    9       26     4  18    5.75   635.0    3.1      60.276
2014    9       26     4  23    5.75   635.0    3.1      60.270
2014    9       26     4  29    5.75   635.0    3.1      60.264
2014    9       26     4  34    5.74   634.9    3.1      60.258
2014    9       26     4  39    5.74   634.9    3.1      60.251
2014    9       26     4  45    5.74   634.8    3.1      60.244
2014    9       26     4  50    5.74   634.8    3.1      60.236
2014    9       26     4  56    5.74   634.8    3.1      60.228
2014    9       26     5   1    5.74   634.7    3.1      60.220
2014    9       26     5   6    5.74   634.7    3.1      60.212
2014    9       26     5  12    5.73   634.7    3.1      60.203
2014    9       26     5  17    5.73   634.6    3.1      60.194
2014    9       26     5  23    5.73   634.6    3.1      60.184
2014    9       26     5  28    5.73   634.5    3.1      60.175
2014    9       26     5  34    5.73   634.5    3.1      60.165
2014    9       26     5  39    5.73   634.5    3.1      60.154
2014    9       26     5  44    5.73   634.4    3.1      60.144
2014    9       26     5  50    5.72   634.4    3.1      60.133
2014    9       26     5  55    5.72   634.4    3.1      60.122
2014    9       26     6   1    5.72   634.3    3.1      60.111
2014    9       26     6   6    5.72   634.3    3.1      60.100
2014    9       26     6  11    5.72   634.2    3.1      60.089
2014    9       26     6  17    5.72   634.2    3.1      60.078
2014    9       26     6  22    5.72   634.2    3.1      60.066
2014    9       26     6  28    5.71   634.1    3.1      60.055
2014    9       26     6  33    5.71   634.1    3.1      60.043
2014    9       26     6  38    5.71   634.0    3.1      60.032
2014    9       26     6  44    5.71   634.0    3.1      60.020
2014    9       26     6  49    5.71   633.9    3.1      60.009
2014    9       26     6  55    5.71   633.9    3.1      59.997
2014    9       26     7   0    5.71   633.9    3.1      59.986
2014    9       26     7   5    5.70   633.8    3.1      59.975
2014    9       26     7  11    5.70   633.8    3.1      59.964
2014    9       26     7  16    5.70   633.7    3.1      59.953
2014    9       26     7  22    5.70   633.7    3.1      59.942
2014    9       26     7  27    5.70   633.6    3.1      59.931
2014    9       26     7  32    5.70   633.6    3.1      59.921
2014    9       26     7  38    5.70   633.6    3.1      59.911
2014    9       26     7  43    5.69   633.5    3.1      59.902
2014    9       26     7  49    5.69   633.5    3.1      59.892
2014    9       26     7  54    5.69   633.4    3.1      59.884
2014    9       26     8   0    5.69   633.4    3.1      59.875
2014    9       26     8   5    5.69   633.3    3.1      59.867
2014    9       26     8  10    5.69   633.3    3.1      59.859
2014    9       26     8  16    5.68   633.2    3.1      59.852
2014    9       26     8  21    5.68   633.2    3.1      59.846
2014    9       26     8  27    5.68   633.1    3.1      59.840
2014    9       26     8  32    5.68   633.1    3.1      59.834
2014    9       26     8  37    5.68   633.1    3.1      59.828
2014    9       26     8  43    5.68   633.0    3.1      59.823
2014    9       26     8  48    5.68   633.0    3.1      59.819
2014    9       26     8  54    5.67   632.9    3.1      59.815
2014    9       26     8  59    5.67   632.9    3.1      59.810
2014    9       26     9   4    5.67   632.8    3.1      59.807
2014    9       26     9  10    5.67   632.8    3.1      59.803
2014    9       26     9  15    5.67   632.7    3.1      59.800
2014    9       26     9  21    5.67   632.7    3.1      59.796
2014    9       26     9  26    5.66   632.7    3.1      59.793
2014    9       26     9  31    5.66   632.6    3.1      59.789
2014    9       26     9  37    5.66   632.6    3.1      59.786
2014    9       26     9  42    5.66   632.5    3.1      59.782
2014    9       26     9  48    5.66   632.5    3.1      59.778
2014    9       26     9  53    5.66   632.4    3.1      59.774
2014    9       26     9  58    5.65   632.4    3.1      59.770
2014    9       26    10   4    5.65   632.3    3.1      59.766
2014    9       26    10   9    5.65   632.2    3.1      59.761
2014    9       26    10  15    5.65   632.2    3.1      59.756
2014    9       26    10  20    5.65   632.1    3.1      59.751
2014    9       26    10  25    5.65   632.1    3.1      59.745
2014    9       26    10  31    5.64   632.0    3.1      59.739
2014    9       26    10  36    5.64   631.9    3.1      59.733
2014    9       26    10  42    5.64   631.9    3.1      59.727
2014    9       26    10  47    5.64   631.8    3.1      59.721
2014    9       26    10  53    5.64   631.8    3.1      59.714
2014    9       26    10  58    5.64   631.7    3.1      59.707
2014    9       26    11   3    5.63   631.6    3.1      59.700
2014    9       26    11   9    5.63   631.6    3.1      59.693
2014    9       26    11  14    5.63   631.5    3.1      59.685
2014    9       26    11  20    5.63   631.4    3.1      59.677
2014    9       26    11  25    5.63   631.4    3.1      59.669
2014    9       26    11  30    5.63   631.3    3.1      59.661
2014    9       26    11  36    5.63   631.2    3.1      59.653
2014    9       26    11  41    5.62   631.2    3.1      59.644
2014    9       26    11  47    5.62   631.1    3.1      59.636
2014    9       26    11  52    5.62   631.0    3.1      59.627
2014    9       26    11  57    5.62   630.9    3.1      59.617
2014    9       26    12   3    5.62   630.9    3.1      59.608
2014    9       26    12   8    5.62   630.8    3.1      59.598
2014    9       26    12  14    5.61   630.7    3.1      59.588
2014    9       26    12  19    5.61   630.7    3.1      59.577
2014    9       26    12  24    5.61   630.6    3.1      59.566
2014    9       26    12  30    5.61   630.5    3.1      59.555
2014    9       26    12  35    5.61   630.4    3.1      59.544
2014    9       26    12  41    5.61   630.4    3.1      59.532
2014    9       26    12  46    5.61   630.3    3.1      59.520
2014    9       26    12  51    5.60   630.2    3.1      59.508
2014    9       26    12  57    5.60   630.1    3.1      59.495
2014    9       26    13   2    5.60   630.1    3.1      59.482
2014    9       26    13   8    5.60   630.0    3.1      59.468
2014    9       26    13  13    5.60   629.9    3.1      59.455
2014    9       26    13  19    5.60   629.8    3.1      59.441
2014    9       26    13  24    5.60   629.7    3.1      59.426
2014    9       26    13  29    5.59   629.7    3.1      59.412
2014    9       26    13  35    5.59   629.6    3.1      59.398
2014    9       26    13  40    5.59   629.5    3.1      59.383
2014    9       26    13  46    5.59   629.4    3.1      59.368
2014    9       26    13  51    5.59   629.3    3.1      59.354
2014    9       26    13  56    5.59   629.2    3.1      59.339
2014    9       26    14   2    5.58   629.2    3.1      59.325
2014    9       26    14   7    5.58   629.1    3.1      59.310
2014    9       26    14  13    5.58   629.0    3.1      59.296
2014    9       26    14  18    5.58   628.9    3.1      59.281
2014    9       26    14  23    5.58   628.8    3.1      59.267
2014    9       26    14  29    5.58   628.7    3.1      59.254
2014    9       26    14  34    5.57   628.6    3.1      59.240
2014    9       26    14  40    5.57   628.6    3.1      59.227
2014    9       26    14  45    5.57   628.5    3.1      59.213
2014    9       26    14  50    5.57   628.4    3.1      59.200
2014    9       26    14  56    5.57   628.3    3.1      59.187
2014    9       26    15   1    5.57   628.2    3.1      59.174
2014    9       26    15   7    5.57   628.1    3.1      59.161
2014    9       26    15  12    5.56   628.1    3.1      59.149
2014    9       26    15  17    5.56   628.0    3.1      59.136
2014    9       26    15  23    5.56   627.9    3.1      59.123
2014    9       26    15  28    5.56   627.8    3.1      59.110
2014    9       26    15  34    5.56   627.7    3.1      59.097
2014    9       26    15  39    5.56   627.6    3.1      59.084
2014    9       26    15  45    5.55   627.5    3.1      59.070
2014    9       26    15  50    5.55   627.5    3.1      59.056
2014    9       26    15  55    5.55   627.4    3.1      59.042
2014    9       26    16   1    5.55   627.3    3.1      59.028
2014    9       26    16   6    5.55   627.2    3.1      59.013
2014    9       26    16  12    5.55   627.1    3.1      58.999
2014    9       26    16  17    5.54   627.0    3.1      58.984
2014    9       26    16  22    5.54   627.0    3.1      58.968
2014    9       26    16  28    5.54   626.9    3.1      58.953
2014    9       26    16  33    5.54   626.8    3.1      58.937
2014    9       26    16  39    5.54   626.7    3.1      58.921
2014    9       26    16  44    5.54   626.6    3.1      58.905
2014    9       26    16  49    5.53   626.5    3.1      58.888
2014    9       26    16  55    5.53   626.4    3.1      58.872
2014    9       26    17   0    5.53   626.3    3.1      58.855
2014    9       26    17   6    5.53   626.3    3.1      58.837
2014    9       26    17  11    5.53   626.2    3.1      58.819
2014    9       26    17  16    5.52   626.1    3.1      58.801
2014    9       26    17  22    5.52   626.0    3.1      58.783
2014    9       26    17  27    5.52   625.9    3.1      58.765
2014    9       26    17  33    5.52   625.8    3.1      58.746
2014    9       26    17  38    5.52   625.7    3.1      58.727
2014    9       26    17  43    5.52   625.6    3.1      58.708
2014    9       26    17  49    5.51   625.5    3.1      58.690
2014    9       26    17  54    5.51   625.4    3.1      58.671
2014    9       26    18   0    5.51   625.3    3.1      58.652
2014    9       26    18   5    5.51   625.2    3.1      58.633
2014    9       26    18  10    5.51   625.1    3.1      58.615
2014    9       26    18  16    5.51   625.0    3.1      58.597
2014    9       26    18  21    5.50   624.9    3.1      58.579
2014    9       26    18  27    5.50   624.8    3.1      58.561
2014    9       26    18  32    5.50   624.7    3.1      58.544
2014    9       26    18  38    5.50   624.5    3.1      58.528
2014    9       26    18  43    5.50   624.4    3.1      58.511
2014    9       26    18  48    5.50   624.3    3.1      58.495
2014    9       26    18  54    5.49   624.2    3.1      58.480
2014    9       26    18  59    5.49   624.1    3.1      58.465
2014    9       26    19   5    5.49   624.0    3.1      58.451
2014    9       26    19  10    5.49   623.9    3.1      58.437
2014    9       26    19  15    5.49   623.8    3.1      58.423
2014    9       26    19  21    5.49   623.7    3.1      58.410
2014    9       26    19  26    5.48   623.5    3.1      58.397
2014    9       26    19  32    5.48   623.4    3.1      58.384
2014    9       26    19  37    5.48   623.3    3.1      58.372
2014    9       26    19  42    5.48   623.2    3.1      58.359
2014    9       26    19  48    5.48   623.1    3.1      58.347
2014    9       26    19  53    5.48   623.0    3.1      58.335
2014    9       26    19  59    5.47   622.8    3.1      58.323
2014    9       26    20   4    5.47   622.7    3.1      58.311
2014    9       26    20   9    5.47   622.6    3.1      58.300
2014    9       26    20  15    5.47   622.5    3.1      58.288
2014    9       26    20  20    5.47   622.4    3.1      58.276
2014    9       26    20  26    5.47   622.2    3.1      58.264
2014    9       26    20  31    5.47   622.1    3.1      58.251
2014    9       26    20  36    5.46   622.0    3.1      58.239
2014    9       26    20  42    5.46   621.9    3.1      58.227
2014    9       26    20  47    5.46   621.8    3.1      58.214
2014    9       26    20  53    5.46   621.6    3.1      58.202
2014    9       26    20  58    5.46   621.5    3.1      58.189
2014    9       26    21   4    5.46   621.4    3.1      58.177
2014    9       26    21   9    5.45   621.3    3.1      58.164
2014    9       26    21  14    5.45   621.1    3.1      58.151
2014    9       26    21  20    5.45   621.0    3.1      58.139
2014    9       26    21  25    5.45   620.9    3.1      58.126
2014    9       26    21  31    5.45   620.8    3.1      58.113
2014    9       26    21  36    5.45   620.6    3.1      58.100
2014    9       26    21  41    5.44   620.5    3.1      58.087
2014    9       26    21  47    5.44   620.4    3.1      58.075
2014    9       26    21  52    5.44   620.3    3.1      58.062
2014    9       26    21  58    5.44   620.2    3.1      58.049
2014    9       26    22   3    5.44   620.0    3.1      58.035
2014    9       26    22   8    5.43   619.9    3.1      58.022
2014    9       26    22  14    5.43   619.8    3.1      58.008
2014    9       26    22  19    5.43   619.7    3.1      57.994
2014    9       26    22  25    5.43   619.5    3.1      57.980
2014    9       26    22  30    5.43   619.4    3.1      57.966
2014    9       26    22  35    5.43   619.3    3.1      57.951
2014    9       26    22  41    5.42   619.2    3.1      57.936
2014    9       26    22  46    5.42   619.1    3.1      57.920
2014    9       26    22  52    5.42   618.9    3.1      57.904
2014    9       26    22  57    5.42   618.8    3.1      57.888
2014    9       26    23   2    5.42   618.7    3.1      57.871
2014    9       26    23   8    5.41   618.5    3.1      57.854
2014    9       26    23  13    5.41   618.4    3.1      57.837
2014    9       26    23  19    5.41   618.3    3.1      57.819
2014    9       26    23  24    5.41   618.2    3.1      57.801
2014    9       26    23  29    5.41   618.0    3.1      57.782
2014    9       26    23  35    5.41   617.9    3.1      57.764
2014    9       26    23  40    5.40   617.8    3.1      57.746
2014    9       26    23  46    5.40   617.6    3.1      57.727
2014    9       26    23  51    5.40   617.5    3.1      57.708
2014    9       26    23  57    5.40   617.4    3.1      57.690
2014    9       27     0   2    5.40   617.3    3.1      57.671
2014    9       27     0   7    5.39   617.1    3.1      57.652
2014    9       27     0  13    5.39   617.0    3.1      57.633
2014    9       27     0  18    5.39   616.9    3.1      57.615
2014    9       27     0  24    5.39   616.7    3.1      57.596
2014    9       27     0  29    5.39   616.6    3.1      57.578
2014    9       27     0  34    5.39   616.5    3.1      57.559
2014    9       27     0  40    5.38   616.4    3.1      57.540
2014    9       27     0  45    5.38   616.2    3.1      57.521
2014    9       27     0  51    5.38   616.1    3.1      57.502
2014    9       27     0  56    5.38   616.0    3.1      57.483
2014    9       27     1   1    5.38   615.8    3.1      57.464
2014    9       27     1   7    5.38   615.7    3.1      57.445
2014    9       27     1  12    5.37   615.6    3.1      57.425
2014    9       27     1  18    5.37   615.4    3.1      57.406
2014    9       27     1  23    5.37   615.3    3.1      57.386
2014    9       27     1  28    5.37   615.2    3.1      57.367
2014    9       27     1  34    5.37   615.0    3.1      57.347
2014    9       27     1  39    5.37   614.9    3.1      57.327
2014    9       27     1  45    5.36   614.8    3.1      57.306
2014    9       27     1  50    5.36   614.6    3.1      57.286
2014    9       27     1  55    5.36   614.5    3.1      57.266
2014    9       27     2   1    5.36   614.4    3.1      57.246
2014    9       27     2   6    5.36   614.2    3.1      57.226
2014    9       27     2  12    5.36   614.1    3.1      57.206
2014    9       27     2  17    5.35   614.0    3.1      57.186
2014    9       27     2  22    5.35   613.8    3.1      57.166
2014    9       27     2  28    5.35   613.7    3.1      57.147
2014    9       27     2  33    5.35   613.5    3.1      57.128
2014    9       27     2  39    5.35   613.4    3.1      57.108
2014    9       27     2  44    5.35   613.3    3.1      57.089
2014    9       27     2  50    5.34   613.1    3.1      57.071
2014    9       27     2  55    5.34   613.0    3.1      57.052
2014    9       27     3   0    5.34   612.9    3.1      57.033
2014    9       27     3   6    5.34   612.7    3.1      57.015
2014    9       27     3  11    5.34   612.6    3.1      56.997
2014    9       27     3  17    5.34   612.4    3.1      56.978
2014    9       27     3  22    5.33   612.3    3.1      56.960
2014    9       27     3  27    5.33   612.2    3.1      56.942
2014    9       27     3  33    5.33   612.0    3.1      56.924
2014    9       27     3  38    5.33   611.9    3.1      56.906
2014    9       27     3  44    5.33   611.7    3.1      56.888
2014    9       27     3  49    5.33   611.6    3.1      56.870
2014    9       27     3  54    5.32   611.4    3.1      56.852
2014    9       27     4   0    5.32   611.3    3.1      56.834
2014    9       27     4   5    5.32   611.1    3.1      56.816
2014    9       27     4  11    5.32   611.0    3.1      56.798
2014    9       27     4  16    5.32   610.9    3.1      56.781
2014    9       27     4  21    5.32   610.7    3.1      56.763
2014    9       27     4  27    5.31   610.6    3.1      56.745
2014    9       27     4  32    5.31   610.4    3.1      56.727
2014    9       27     4  38    5.31   610.3    3.1      56.709
2014    9       27     4  43    5.31   610.1    3.1      56.690
2014    9       27     4  48    5.31   610.0    3.1      56.672
2014    9       27     4  54    5.31   609.8    3.1      56.654
2014    9       27     4  59    5.30   609.7    3.1      56.636
2014    9       27     5   5    5.30   609.5    3.1      56.617
2014    9       27     5  10    5.30   609.4    3.1      56.599
2014    9       27     5  16    5.30   609.2    3.1      56.581
2014    9       27     5  21    5.30   609.0    3.1      56.562
2014    9       27     5  26    5.30   608.9    3.1      56.543
2014    9       27     5  32    5.29   608.7    3.1      56.525
2014    9       27     5  37    5.29   608.6    3.1      56.506
2014    9       27     5  43    5.29   608.4    3.1      56.487
2014    9       27     5  48    5.29   608.3    3.1      56.468
2014    9       27     5  53    5.29   608.1    3.1      56.449
2014    9       27     5  59    5.29   608.0    3.1      56.430
2014    9       27     6   4    5.28   607.8    3.1      56.411
2014    9       27     6  10    5.28   607.6    3.1      56.392
2014    9       27     6  15    5.28   607.5    3.1      56.374
2014    9       27     6  20    5.28   607.3    3.1      56.355
2014    9       27     6  26    5.28   607.1    3.1      56.337
2014    9       27     6  31    5.27   607.0    3.1      56.319
2014    9       27     6  37    5.27   606.8    3.1      56.301
2014    9       27     6  42    5.27   606.7    3.1      56.284
2014    9       27     6  47    5.27   606.5    3.1      56.267
2014    9       27     6  53    5.27   606.3    3.1      56.251
2014    9       27     6  58    5.27   606.2    3.1      56.234
2014    9       27     7   4    5.26   606.0    3.1      56.219
2014    9       27     7   9    5.26   605.8    3.1      56.204
2014    9       27     7  14    5.26   605.7    3.1      56.189
2014    9       27     7  20    5.26   605.5    3.1      56.175
2014    9       27     7  25    5.26   605.4    3.1      56.162
2014    9       27     7  31    5.26   605.2    3.1      56.149
2014    9       27     7  36    5.26   605.0    3.1      56.136
2014    9       27     7  42    5.25   604.9    3.1      56.124
2014    9       27     7  47    5.25   604.7    3.1      56.113
2014    9       27     7  52    5.25   604.5    3.1      56.102
2014    9       27     7  58    5.25   604.4    3.1      56.091
2014    9       27     8   3    5.25   604.2    3.1      56.080
2014    9       27     8   9    5.25   604.1    3.1      56.069
2014    9       27     8  14    5.25   603.9    3.1      56.059
2014    9       27     8  19    5.24   603.8    3.1      56.049
2014    9       27     8  25    5.24   603.6    3.1      56.038
2014    9       27     8  30    5.24   603.4    3.1      56.028
2014    9       27     8  36    5.24   603.3    3.1      56.017
2014    9       27     8  41    5.24   603.1    3.1      56.007
2014    9       27     8  46    5.24   603.0    3.1      55.996
2014    9       27     8  52    5.24   602.8    3.1      55.984
2014    9       27     8  57    5.23   602.7    3.1      55.973
2014    9       27     9   3    5.23   602.5    3.1      55.961
2014    9       27     9   8    5.23   602.4    3.1      55.948
2014    9       27     9  13    5.23   602.2    3.1      55.935
2014    9       27     9  19    5.23   602.0    3.1      55.922
2014    9       27     9  24    5.23   601.9    3.1      55.908
2014    9       27     9  30    5.23   601.7    3.1      55.894
2014    9       27     9  35    5.22   601.6    3.1      55.880
2014    9       27     9  40    5.22   601.4    3.1      55.865
2014    9       27     9  46    5.22   601.3    3.1      55.850
2014    9       27     9  51    5.22   601.1    3.1      55.834
2014    9       27     9  57    5.22   601.0    3.1      55.819
2014    9       27    10   2    5.22   600.8    3.1      55.802
2014    9       27    10   7    5.21   600.7    3.1      55.786
2014    9       27    10  13    5.21   600.5    3.1      55.769
2014    9       27    10  18    5.21   600.4    3.1      55.752
2014    9       27    10  24    5.21   600.2    3.1      55.734
2014    9       27    10  29    5.21   600.0    3.1      55.717
2014    9       27    10  35    5.21   599.9    3.1      55.699
2014    9       27    10  40    5.21   599.7    3.1      55.680
2014    9       27    10  45    5.20   599.6    3.1      55.662
2014    9       27    10  51    5.20   599.4    3.1      55.643
2014    9       27    10  56    5.20   599.3    3.1      55.624
2014    9       27    11   2    5.20   599.1    3.1      55.605
2014    9       27    11   7    5.20   599.0    3.1      55.586
2014    9       27    11  12    5.20   598.8    3.1      55.566
2014    9       27    11  18    5.20   598.7    3.1      55.547
2014    9       27    11  23    5.19   598.5    3.1      55.528
2014    9       27    11  29    5.19   598.4    3.1      55.508
2014    9       27    11  34    5.19   598.2    3.1      55.489
2014    9       27    11  39    5.19   598.0    3.1      55.470
2014    9       27    11  45    5.19   597.9    3.1      55.450
2014    9       27    11  50    5.19   597.7    3.1      55.431
2014    9       27    11  56    5.18   597.6    3.1      55.412
2014    9       27    12   1    5.18   597.4    3.1      55.393
2014    9       27    12   6    5.18   597.3    3.1      55.374
2014    9       27    12  12    5.18   597.1    3.1      55.356
2014    9       27    12  17    5.18   596.9    3.1      55.337
2014    9       27    12  23    5.18   596.8    3.1      55.319
2014    9       27    12  28    5.18   596.6    3.1      55.301
2014    9       27    12  33    5.17   596.5    3.1      55.283
2014    9       27    12  39    5.17   596.3    3.1      55.265
2014    9       27    12  44    5.17   596.1    3.1      55.248
2014    9       27    12  50    5.17   596.0    3.1      55.230
2014    9       27    12  55    5.17   595.8    3.1      55.213
2014    9       27    13   1    5.17   595.7    3.1      55.196
2014    9       27    13   6    5.17   595.5    3.1      55.179
2014    9       27    13  11    5.16   595.3    3.1      55.163
2014    9       27    13  17    5.16   595.2    3.1      55.146
2014    9       27    13  22    5.16   595.0    3.1      55.130
2014    9       27    13  28    5.16   594.8    3.1      55.114
2014    9       27    13  33    5.16   594.7    3.1      55.098
2014    9       27    13  38    5.16   594.5    3.1      55.082
2014    9       27    13  44    5.16   594.3    3.1      55.066
2014    9       27    13  49    5.15   594.2    3.1      55.051
2014    9       27    13  55    5.15   594.0    3.1      55.036
2014    9       27    14   0    5.15   593.8    3.1      55.021
2014    9       27    14   5    5.15   593.6    3.1      55.006
2014    9       27    14  11    5.15   593.5    3.1      54.992
2014    9       27    14  16    5.15   593.3    3.1      54.977
2014    9       27    14  22    5.15   593.1    3.1      54.963
2014    9       27    14  27    5.14   593.0    3.1      54.949
2014    9       27    14  32    5.14   592.8    3.1      54.935
2014    9       27    14  38    5.14   592.6    3.1      54.922
2014    9       27    14  43    5.14   592.4    3.1      54.909
2014    9       27    14  49    5.14   592.3    3.1      54.895
2014    9       27    14  54    5.14   592.1    3.1      54.883
2014    9       27    14  59    5.14   591.9    3.1      54.870
2014    9       27    15   5    5.13   591.8    3.1      54.857
2014    9       27    15  10    5.13   591.6    3.2      54.845
2014    9       27    15  16    5.13   591.4    3.2      54.833
2014    9       27    15  21    5.13   591.2    3.2      54.821
2014    9       27    15  26    5.13   591.1    3.2      54.809
2014    9       27    15  32    5.13   590.9    3.2      54.797
2014    9       27    15  37    5.13   590.7    3.2      54.786
2014    9       27    15  43    5.13   590.6    3.2      54.774
2014    9       27    15  48    5.12   590.4    3.2      54.763
2014    9       27    15  54    5.12   590.2    3.2      54.751
2014    9       27    15  59    5.12   590.0    3.2      54.740
2014    9       27    16   4    5.12   589.9    3.2      54.729
2014    9       27    16  10    5.12   589.7    3.2      54.718
2014    9       27    16  15    5.12   589.5    3.2      54.707
2014    9       27    16  21    5.12   589.4    3.2      54.696
2014    9       27    16  26    5.12   589.2    3.2      54.685
2014    9       27    16  31    5.12   589.0    3.2      54.674
2014    9       27    16  37    5.11   588.9    3.2      54.663
2014    9       27    16  42    5.11   588.7    3.2      54.653
2014    9       27    16  48    5.11   588.5    3.2      54.642
2014    9       27    16  53    5.11   588.3    3.2      54.631
2014    9       27    16  58    5.11   588.2    3.2      54.620
2014    9       27    17   4    5.11   588.0    3.2      54.609
2014    9       27    17   9    5.11   587.8    3.2      54.598
2014    9       27    17  15    5.11   587.7    3.2      54.587
2014    9       27    17  20    5.10   587.5    3.2      54.576
2014    9       27    17  25    5.10   587.3    3.2      54.566
2014    9       27    17  31    5.10   587.2    3.2      54.554
2014    9       27    17  36    5.10   587.0    3.2      54.543
2014    9       27    17  42    5.10   586.8    3.2      54.532
2014    9       27    17  47    5.10   586.7    3.2      54.521
2014    9       27    17  52    5.10   586.5    3.2      54.509
2014    9       27    17  58    5.10   586.4    3.2      54.498
2014    9       27    18   3    5.10   586.2    3.2      54.486
2014    9       27    18   9    5.09   586.0    3.2      54.474
2014    9       27    18  14    5.09   585.9    3.2      54.463
2014    9       27    18  20    5.09   585.7    3.2      54.451
2014    9       27    18  25    5.09   585.5    3.2      54.439
2014    9       27    18  30    5.09   585.4    3.2      54.426
2014    9       27    18  36    5.09   585.2    3.2      54.414
2014    9       27    18  41    5.09   585.0    3.2      54.402
2014    9       27    18  47    5.09   584.9    3.2      54.389
2014    9       27    18  52    5.08   584.7    3.2      54.377
2014    9       27    18  57    5.08   584.6    3.2      54.365
2014    9       27    19   3    5.08   584.4    3.2      54.352
2014    9       27    19   8    5.08   584.2    3.2      54.340
2014    9       27    19  14    5.08   584.1    3.2      54.328
2014    9       27    19  19    5.08   583.9    3.2      54.315
2014    9       27    19  24    5.08   583.7    3.2      54.303
2014    9       27    19  30    5.08   583.6    3.2      54.291
2014    9       27    19  35    5.07   583.4    3.2      54.279
2014    9       27    19  41    5.07   583.2    3.2      54.267
2014    9       27    19  46    5.07   583.1    3.2      54.255
2014    9       27    19  51    5.07   582.9    3.2      54.243
2014    9       27    19  57    5.07   582.8    3.2      54.232
2014    9       27    20   2    5.07   582.6    3.2      54.220
2014    9       27    20   8    5.07   582.4    3.2      54.209
2014    9       27    20  13    5.07   582.3    3.2      54.198
2014    9       27    20  18    5.07   582.1    3.2      54.187
2014    9       27    20  24    5.06   581.9    3.2      54.176
2014    9       27    20  29    5.06   581.8    3.2      54.166
2014    9       27    20  35    5.06   581.6    3.2      54.155
2014    9       27    20  40    5.06   581.4    3.2      54.145
2014    9       27    20  46    5.06   581.3    3.2      54.134
2014    9       27    20  51    5.06   581.1    3.2      54.124
2014    9       27    20  56    5.06   581.0    3.2      54.114
2014    9       27    21   2    5.06   580.8    3.2      54.103
2014    9       27    21   7    5.06   580.6    3.2      54.093
2014    9       27    21  13    5.05   580.5    3.2      54.083
2014    9       27    21  18    5.05   580.3    3.2      54.072
2014    9       27    21  23    5.05   580.1    3.2      54.062
2014    9       27    21  29    5.05   580.0    3.2      54.052
2014    9       27    21  34    5.05   579.8    3.2      54.041
2014    9       27    21  40    5.05   579.6    3.2      54.031
2014    9       27    21  45    5.05   579.5    3.2      54.020
2014    9       27    21  50    5.05   579.3    3.2      54.009
2014    9       27    21  56    5.05   579.2    3.2      53.998
2014    9       27    22   1    5.04   579.0    3.2      53.987
2014    9       27    22   7    5.04   578.8    3.2      53.976
2014    9       27    22  12    5.04   578.7    3.2      53.964
2014    9       27    22  17    5.04   578.5    3.2      53.953
2014    9       27    22  23    5.04   578.3    3.2      53.941
2014    9       27    22  28    5.04   578.2    3.2      53.929
2014    9       27    22  34    5.04   578.0    3.2      53.917
2014    9       27    22  39    5.04   577.9    3.2      53.905
2014    9       27    22  44    5.04   577.7    3.2      53.893
2014    9       27    22  50    5.03   577.5    3.2      53.881
2014    9       27    22  55    5.03   577.4    3.2      53.868
2014    9       27    23   1    5.03   577.2    3.2      53.856
2014    9       27    23   6    5.03   577.0    3.2      53.843
2014    9       27    23  11    5.03   576.9    3.2      53.831
2014    9       27    23  17    5.03   576.7    3.2      53.818
2014    9       27    23  22    5.03   576.5    3.2      53.806
2014    9       27    23  28    5.03   576.4    3.2      53.793
2014    9       27    23  33    5.03   576.2    3.3      53.781
2014    9       27    23  39    5.03   576.1    3.3      53.768
2014    9       27    23  44    5.02   575.9    3.3      53.756
2014    9       27    23  49    5.02   575.7    3.3      53.743
2014    9       27    23  55    5.02   575.6    3.3      53.731
2014    9       28     0   0    5.02   575.4    3.3      53.719
2014    9       28     0   6    5.02   575.2    3.3      53.707
2014    9       28     0  11    5.02   575.1    3.3      53.695
2014    9       28     0  16    5.02   574.9    3.3      53.683
2014    9       28     0  22    5.02   574.8    3.3      53.671
2014    9       28     0  27    5.02   574.6    3.3      53.660
2014    9       28     0  33    5.02   574.4    3.3      53.648
2014    9       28     0  38    5.02   574.3    3.3      53.637
2014    9       28     0  43    5.01   574.1    3.3      53.626
2014    9       28     0  49    5.01   573.9    3.3      53.615
2014    9       28     0  54    5.01   573.8    3.3      53.604
2014    9       28     1   0    5.01   573.6    3.3      53.593
2014    9       28     1   5    5.01   573.5    3.3      53.582
2014    9       28     1  10    5.01   573.3    3.3      53.572
2014    9       28     1  16    5.01   573.1    3.3      53.561
2014    9       28     1  21    5.01   573.0    3.3      53.551
2014    9       28     1  27    5.01   572.8    3.3      53.541
2014    9       28     1  32    5.01   572.6    3.3      53.530
2014    9       28     1  37    5.01   572.5    3.3      53.520
2014    9       28     1  43    5.00   572.3    3.3      53.510
2014    9       28     1  48    5.00   572.2    3.3      53.500
2014    9       28     1  54    5.00   572.0    3.3      53.490
2014    9       28     1  59    5.00   571.8    3.3      53.480
2014    9       28     2   5    5.00   571.7    3.3      53.470
2014    9       28     2  10    5.00   571.5    3.3      53.460
2014    9       28     2  15    5.00   571.4    3.3      53.450
2014    9       28     2  21    5.00   571.2    3.3      53.440
2014    9       28     2  26    5.00   571.0    3.3      53.430
2014    9       28     2  32    5.00   570.9    3.3      53.420
2014    9       28     2  37    5.00   570.7    3.3      53.410
2014    9       28     2  42    4.99   570.5    3.3      53.400
2014    9       28     2  48    4.99   570.4    3.3      53.390
2014    9       28     2  53    4.99   570.2    3.3      53.380
2014    9       28     2  59    4.99   570.1    3.3      53.370
2014    9       28     3   4    4.99   569.9    3.3      53.361
2014    9       28     3   9    4.99   569.7    3.3      53.351
2014    9       28     3  15    4.99   569.6    3.3      53.341
2014    9       28     3  20    4.99   569.4    3.3      53.331
2014    9       28     3  26    4.99   569.2    3.3      53.322
2014    9       28     3  31    4.99   569.1    3.3      53.312
2014    9       28     3  36    4.99   568.9    3.3      53.303
2014    9       28     3  42    4.99   568.8    3.3      53.293
2014    9       28     3  47    4.98   568.6    3.3      53.284
2014    9       28     3  53    4.98   568.4    3.3      53.274
2014    9       28     3  58    4.98   568.3    3.3      53.265
2014    9       28     4   3    4.98   568.1    3.3      53.255
2014    9       28     4   9    4.98   567.9    3.3      53.246
2014    9       28     4  14    4.98   567.8    3.3      53.237
2014    9       28     4  20    4.98   567.6    3.3      53.227
2014    9       28     4  25    4.98   567.5    3.3      53.218
2014    9       28     4  31    4.98   567.3    3.3      53.208
2014    9       28     4  36    4.98   567.1    3.3      53.198
2014    9       28     4  41    4.98   567.0    3.3      53.189
2014    9       28     4  47    4.98   566.8    3.3      53.179
2014    9       28     4  52    4.97   566.7    3.3      53.169
2014    9       28     4  58    4.97   566.5    3.3      53.159
2014    9       28     5   3    4.97   566.4    3.3      53.148
2014    9       28     5   8    4.97   566.2    3.3      53.138
2014    9       28     5  14    4.97   566.0    3.3      53.127
2014    9       28     5  19    4.97   565.9    3.3      53.117
2014    9       28     5  25    4.97   565.7    3.3      53.105
2014    9       28     5  30    4.97   565.6    3.3      53.094
2014    9       28     5  35    4.97   565.4    3.3      53.083
2014    9       28     5  41    4.97   565.2    3.3      53.071
2014    9       28     5  46    4.97   565.1    3.3      53.059
2014    9       28     5  52    4.97   564.9    3.3      53.047
2014    9       28     5  57    4.97   564.8    3.3      53.035
2014    9       28     6   2    4.96   564.6    3.3      53.023
2014    9       28     6   8    4.96   564.5    3.3      53.010
2014    9       28     6  13    4.96   564.3    3.3      52.997
2014    9       28     6  19    4.96   564.1    3.3      52.984
2014    9       28     6  24    4.96   564.0    3.3      52.971
2014    9       28     6  29    4.96   563.8    3.3      52.957
2014    9       28     6  35    4.96   563.7    3.3      52.944
2014    9       28     6  40    4.96   563.5    3.3      52.930
2014    9       28     6  46    4.96   563.4    3.3      52.917
2014    9       28     6  51    4.96   563.2    3.3      52.903
2014    9       28     6  56    4.96   563.1    3.3      52.889
2014    9       28     7   2    4.96   562.9    3.4      52.876
2014    9       28     7   7    4.96   562.8    3.4      52.862
2014    9       28     7  13    4.95   562.6    3.4      52.848
2014    9       28     7  18    4.95   562.4    3.4      52.834
2014    9       28     7  24    4.95   562.3    3.4      52.821
2014    9       28     7  29    4.95   562.1    3.4      52.807
2014    9       28     7  34    4.95   562.0    3.4      52.794
2014    9       28     7  40    4.95   561.8    3.4      52.781
2014    9       28     7  45    4.95   561.7    3.4      52.767
2014    9       28     7  51    4.95   561.5    3.4      52.755
2014    9       28     7  56    4.95   561.4    3.4      52.742
2014    9       28     8   1    4.95   561.2    3.4      52.729
2014    9       28     8   7    4.95   561.1    3.4      52.717
2014    9       28     8  12    4.95   560.9    3.4      52.705
2014    9       28     8  18    4.95   560.8    3.4      52.693
2014    9       28     8  23    4.95   560.6    3.4      52.681
2014    9       28     8  28    4.95   560.5    3.4      52.669
2014    9       28     8  34    4.94   560.3    3.4      52.658
2014    9       28     8  39    4.94   560.2    3.4      52.646
2014    9       28     8  45    4.94   560.0    3.4      52.635
2014    9       28     8  50    4.94   559.9    3.4      52.624
2014    9       28     8  55    4.94   559.7    3.4      52.613
2014    9       28     9   1    4.94   559.6    3.4      52.602
2014    9       28     9   6    4.94   559.4    3.4      52.592
2014    9       28     9  12    4.94   559.3    3.4      52.581
2014    9       28     9  17    4.94   559.1    3.4      52.570
2014    9       28     9  22    4.94   559.0    3.4      52.559
2014    9       28     9  28    4.94   558.8    3.4      52.549
2014    9       28     9  33    4.94   558.7    3.4      52.538
2014    9       28     9  39    4.94   558.5    3.4      52.527
2014    9       28     9  44    4.94   558.4    3.4      52.516
2014    9       28     9  50    4.94   558.2    3.4      52.505
2014    9       28     9  55    4.93   558.1    3.4      52.494
2014    9       28    10   0    4.93   557.9    3.4      52.483
2014    9       28    10   6    4.93   557.8    3.4      52.472
2014    9       28    10  11    4.93   557.6    3.4      52.461
2014    9       28    10  17    4.93   557.5    3.4      52.449
2014    9       28    10  22    4.93   557.3    3.4      52.438
2014    9       28    10  27    4.93   557.2    3.4      52.427
2014    9       28    10  33    4.93   557.0    3.4      52.415
2014    9       28    10  38    4.93   556.9    3.4      52.404
2014    9       28    10  44    4.93   556.7    3.4      52.392
2014    9       28    10  49    4.93   556.6    3.4      52.380
2014    9       28    10  54    4.93   556.4    3.4      52.369
2014    9       28    11   0    4.93   556.3    3.4      52.357
2014    9       28    11   5    4.93   556.1    3.4      52.345
2014    9       28    11  11    4.92   555.9    3.4      52.334
2014    9       28    11  16    4.92   555.8    3.4      52.322
2014    9       28    11  21    4.92   555.6    3.4      52.310
2014    9       28    11  27    4.92   555.5    3.4      52.298
2014    9       28    11  32    4.92   555.3    3.4      52.287
2014    9       28    11  38    4.92   555.2    3.4      52.275
2014    9       28    11  43    4.92   555.0    3.4      52.263
2014    9       28    11  48    4.92   554.9    3.4      52.251
2014    9       28    11  54    4.92   554.7    3.4      52.239
2014    9       28    11  59    4.92   554.6    3.4      52.227
2014    9       28    12   5    4.92   554.4    3.4      52.215
2014    9       28    12  10    4.92   554.3    3.4      52.203
2014    9       28    12  16    4.92   554.1    3.4      52.190
2014    9       28    12  21    4.92   553.9    3.4      52.178
2014    9       28    12  26    4.92   553.8    3.4      52.166
2014    9       28    12  32    4.91   553.6    3.4      52.153
2014    9       28    12  37    4.91   553.5    3.4      52.140
2014    9       28    12  43    4.91   553.3    3.4      52.127
2014    9       28    12  48    4.91   553.2    3.4      52.114
2014    9       28    12  53    4.91   553.0    3.4      52.100
2014    9       28    12  59    4.91   552.9    3.4      52.086
2014    9       28    13   4    4.91   552.7    3.4      52.072
2014    9       28    13  10    4.91   552.5    3.4      52.058
2014    9       28    13  15    4.91   552.4    3.4      52.043
2014    9       28    13  20    4.91   552.2    3.4      52.028
2014    9       28    13  26    4.91   552.1    3.4      52.013
2014    9       28    13  31    4.91   551.9    3.4      51.997
2014    9       28    13  37    4.91   551.8    3.4      51.981
2014    9       28    13  42    4.91   551.6    3.4      51.964
2014    9       28    13  47    4.91   551.5    3.4      51.948
2014    9       28    13  53    4.91   551.3    3.4      51.931
2014    9       28    13  58    4.91   551.1    3.4      51.913
2014    9       28    14   4    4.90   551.0    3.4      51.895
2014    9       28    14   9    4.90   550.8    3.4      51.878
2014    9       28    14  14    4.90   550.7    3.4      51.860
2014    9       28    14  20    4.90   550.5    3.4      51.842
2014    9       28    14  25    4.90   550.4    3.4      51.823
2014    9       28    14  31    4.90   550.2    3.4      51.805
2014    9       28    14  36    4.90   550.1    3.4      51.786
2014    9       28    14  41    4.90   549.9    3.4      51.767
2014    9       28    14  47    4.90   549.8    3.5      51.749
2014    9       28    14  52    4.90   549.6    3.5      51.730
2014    9       28    14  58    4.90   549.5    3.5      51.711
2014    9       28    15   3    4.90   549.3    3.5      51.692
2014    9       28    15   9    4.90   549.2    3.5      51.674
2014    9       28    15  14    4.90   549.0    3.5      51.655
2014    9       28    15  19    4.90   548.9    3.5      51.636
2014    9       28    15  25    4.90   548.7    3.5      51.617
2014    9       28    15  30    4.90   548.6    3.5      51.599
2014    9       28    15  36    4.90   548.4    3.5      51.580
2014    9       28    15  41    4.90   548.3    3.5      51.562
2014    9       28    15  46    4.89   548.1    3.5      51.544
2014    9       28    15  52    4.89   548.0    3.5      51.526
2014    9       28    15  57    4.89   547.8    3.5      51.508
2014    9       28    16   3    4.89   547.7    3.5      51.490
2014    9       28    16   8    4.89   547.5    3.5      51.473
2014    9       28    16  13    4.89   547.4    3.5      51.455
2014    9       28    16  19    4.89   547.2    3.5      51.438
2014    9       28    16  24    4.89   547.1    3.5      51.421
2014    9       28    16  30    4.89   546.9    3.5      51.404
2014    9       28    16  35    4.89   546.8    3.5      51.388
2014    9       28    16  40    4.89   546.6    3.5      51.371
2014    9       28    16  46    4.89   546.5    3.5      51.355
2014    9       28    16  51    4.89   546.3    3.5      51.339
2014    9       28    16  57    4.89   546.2    3.5      51.324
2014    9       28    17   2    4.89   546.0    3.5      51.308
2014    9       28    17   8    4.89   545.9    3.5      51.293
2014    9       28    17  13    4.89   545.7    3.5      51.278
2014    9       28    17  18    4.89   545.6    3.5      51.264
2014    9       28    17  24    4.88   545.4    3.5      51.249
2014    9       28    17  29    4.88   545.3    3.5      51.235
2014    9       28    17  35    4.88   545.1    3.5      51.221
2014    9       28    17  40    4.88   545.0    3.5      51.208
2014    9       28    17  45    4.88   544.8    3.5      51.194
2014    9       28    17  51    4.88   544.7    3.5      51.181
2014    9       28    17  56    4.88   544.5    3.5      51.168
2014    9       28    18   2    4.88   544.4    3.5      51.155
2014    9       28    18   7    4.88   544.2    3.5      51.142
2014    9       28    18  12    4.88   544.1    3.5      51.129
2014    9       28    18  18    4.88   543.9    3.5      51.116
2014    9       28    18  23    4.88   543.8    3.5      51.103
2014    9       28    18  29    4.88   543.6    3.5      51.090
2014    9       28    18  34    4.88   543.5    3.5      51.077
2014    9       28    18  39    4.88   543.3    3.5      51.064
2014    9       28    18  45    4.88   543.1    3.5      51.050
2014    9       28    18  50    4.88   543.0    3.5      51.037
2014    9       28    18  56    4.88   542.8    3.5      51.024
2014    9       28    19   1    4.87   542.7    3.5      51.010
2014    9       28    19   6    4.87   542.5    3.5      50.996
2014    9       28    19  12    4.87   542.4    3.5      50.983
2014    9       28    19  17    4.87   542.2    3.5      50.969
2014    9       28    19  23    4.87   542.1    3.5      50.955
2014    9       28    19  28    4.87   541.9    3.5      50.941
2014    9       28    19  33    4.87   541.8    3.5      50.927
2014    9       28    19  39    4.87   541.6    3.5      50.913
2014    9       28    19  44    4.87   541.5    3.5      50.899
2014    9       28    19  50    4.87   541.3    3.5      50.885
2014    9       28    19  55    4.87   541.2    3.5      50.872
2014    9       28    20   1    4.87   541.0    3.5      50.859
2014    9       28    20   6    4.87   540.8    3.5      50.846
2014    9       28    20  11    4.87   540.7    3.5      50.833
2014    9       28    20  17    4.87   540.5    3.5      50.820
2014    9       28    20  22    4.87   540.4    3.5      50.807
2014    9       28    20  28    4.87   540.2    3.5      50.794
2014    9       28    20  33    4.87   540.1    3.5      50.781
2014    9       28    20  38    4.87   539.9    3.5      50.767
2014    9       28    20  44    4.87   539.8    3.5      50.754
2014    9       28    20  49    4.86   539.6    3.5      50.740
2014    9       28    20  55    4.86   539.5    3.5      50.725
2014    9       28    21   0    4.86   539.3    3.5      50.709
2014    9       28    21   5    4.86   539.2    3.5      50.693
2014    9       28    21  11    4.86   539.0    3.5      50.677
2014    9       28    21  16    4.86   538.9    3.5      50.659
2014    9       28    21  22    4.86   538.7    3.5      50.642
2014    9       28    21  27    4.86   538.5    3.6      50.623
2014    9       28    21  32    4.86   538.4    3.6      50.604
2014    9       28    21  38    4.86   538.2    3.6      50.585
2014    9       28    21  43    4.86   538.1    3.6      50.565
2014    9       28    21  49    4.86   537.9    3.6      50.544
2014    9       28    21  54    4.86   537.8    3.6      50.524
2014    9       28    21  59    4.86   537.6    3.6      50.502
2014    9       28    22   5    4.86   537.5    3.6      50.481
2014    9       28    22  10    4.86   537.3    3.6      50.459
2014    9       28    22  16    4.86   537.2    3.6      50.437
2014    9       28    22  21    4.86   537.0    3.6      50.414
2014    9       28    22  27    4.86   536.9    3.6      50.391
2014    9       28    22  32    4.86   536.7    3.6      50.368
2014    9       28    22  37    4.86   536.6    3.6      50.344
2014    9       28    22  43    4.86   536.4    3.6      50.321
2014    9       28    22  48    4.86   536.3    3.6      50.297
2014    9       28    22  54    4.86   536.1    3.6      50.273
2014    9       28    22  59    4.85   536.0    3.6      50.248
2014    9       28    23   4    4.85   535.8    3.6      50.224
2014    9       28    23  10    4.85   535.7    3.6      50.200
2014    9       28    23  15    4.85   535.5    3.6      50.175
2014    9       28    23  21    4.85   535.4    3.6      50.151
2014    9       28    23  26    4.85   535.2    3.6      50.126
2014    9       28    23  31    4.85   535.1    3.6      50.102
2014    9       28    23  37    4.85   534.9    3.6      50.077
2014    9       28    23  42    4.85   534.7    3.6      50.053
2014    9       28    23  48    4.85   534.6    3.6      50.028
2014    9       28    23  53    4.85   534.4    3.6      50.004
2014    9       28    23  58    4.85   534.3    3.6      49.980
2014    9       29     0   4    4.85   534.1    3.6      49.956
2014    9       29     0   9    4.85   534.0    3.6      49.932
2014    9       29     0  15    4.85   533.8    3.6      49.909
2014    9       29     0  20    4.85   533.7    3.6      49.886
2014    9       29     0  25    4.85   533.5    3.6      49.864
2014    9       29     0  31    4.85   533.4    3.6      49.841
2014    9       29     0  36    4.85   533.2    3.6      49.819
2014    9       29     0  42    4.85   533.1    3.6      49.798
2014    9       29     0  47    4.84   532.9    3.6      49.777
2014    9       29     0  53    4.84   532.8    3.6      49.756
2014    9       29     0  58    4.84   532.6    3.6      49.736
2014    9       29     1   3    4.84   532.4    3.6      49.716
2014    9       29     1   9    4.84   532.3    3.6      49.697
2014    9       29     1  14    4.84   532.1    3.6      49.678
2014    9       29     1  20    4.84   532.0    3.6      49.660
2014    9       29     1  25    4.84   531.8    3.6      49.642
2014    9       29     1  30    4.84   531.7    3.6      49.624
2014    9       29     1  36    4.84   531.5    3.6      49.607
2014    9       29     1  41    4.84   531.4    3.6      49.590
2014    9       29     1  47    4.84   531.2    3.6      49.573
2014    9       29     1  52    4.84   531.0    3.6      49.557
2014    9       29     1  57    4.84   530.9    3.6      49.540
2014    9       29     2   3    4.84   530.7    3.6      49.524
2014    9       29     2   8    4.84   530.6    3.6      49.508
2014    9       29     2  14    4.84   530.4    3.6      49.492
2014    9       29     2  19    4.84   530.3    3.6      49.476
2014    9       29     2  24    4.84   530.1    3.6      49.461
2014    9       29     2  30    4.84   530.0    3.6      49.445
2014    9       29     2  35    4.84   529.8    3.6      49.429
2014    9       29     2  41    4.84   529.6    3.6      49.413
2014    9       29     2  46    4.84   529.5    3.6      49.397
2014    9       29     2  51    4.84   529.3    3.6      49.381
2014    9       29     2  57    4.84   529.2    3.6      49.364
2014    9       29     3   2    4.83   529.0    3.6      49.348
2014    9       29     3   8    4.83   528.9    3.6      49.332
2014    9       29     3  13    4.83   528.7    3.6      49.316
2014    9       29     3  18    4.83   528.6    3.6      49.300
2014    9       29     3  24    4.83   528.4    3.6      49.284
2014    9       29     3  29    4.83   528.3    3.6      49.268
2014    9       29     3  35    4.83   528.1    3.6      49.252
2014    9       29     3  40    4.83   527.9    3.6      49.236
2014    9       29     3  46    4.83   527.8    3.7      49.219
2014    9       29     3  51    4.83   527.6    3.7      49.204
2014    9       29     3  56    4.83   527.5    3.7      49.188
2014    9       29     4   2    4.83   527.3    3.7      49.172
2014    9       29     4   7    4.83   527.1    3.7      49.156
2014    9       29     4  13    4.83   527.0    3.7      49.140
2014    9       29     4  18    4.83   526.8    3.7      49.124
2014    9       29     4  23    4.83   526.7    3.7      49.108
2014    9       29     4  29    4.83   526.5    3.7      49.091
2014    9       29     4  34    4.83   526.4    3.7      49.074
2014    9       29     4  40    4.83   526.2    3.7      49.057
2014    9       29     4  45    4.83   526.0    3.7      49.039
2014    9       29     4  50    4.83   525.9    3.7      49.022
2014    9       29     4  56    4.83   525.7    3.7      49.004
2014    9       29     5   1    4.83   525.6    3.7      48.986
2014    9       29     5   7    4.83   525.4    3.7      48.967
2014    9       29     5  12    4.83   525.3    3.7      48.949
2014    9       29     5  17    4.83   525.1    3.7      48.930
2014    9       29     5  23    4.83   524.9    3.7      48.911
2014    9       29     5  28    4.83   524.8    3.7      48.891
2014    9       29     5  34    4.83   524.6    3.7      48.871
2014    9       29     5  39    4.83   524.5    3.7      48.851
2014    9       29     5  44    4.83   524.3    3.7      48.830
2014    9       29     5  50    4.83   524.2    3.7      48.809
2014    9       29     5  55    4.82   524.0    3.7      48.787
2014    9       29     6   1    4.82   523.8    3.7      48.764
2014    9       29     6   6    4.82   523.7    3.7      48.741
2014    9       29     6  12    4.82   523.5    3.7      48.718
2014    9       29     6  17    4.82   523.4    3.7      48.694
2014    9       29     6  22    4.82   523.2    3.7      48.670
2014    9       29     6  28    4.82   523.1    3.7      48.646
2014    9       29     6  33    4.82   522.9    3.7      48.621
2014    9       29     6  39    4.82   522.7    3.7      48.595
2014    9       29     6  44    4.82   522.6    3.7      48.570
2014    9       29     6  49    4.82   522.4    3.7      48.544
2014    9       29     6  55    4.82   522.3    3.7      48.518
2014    9       29     7   0    4.82   522.1    3.7      48.491
2014    9       29     7   6    4.82   522.0    3.7      48.464
2014    9       29     7  11    4.82   521.8    3.7      48.438
2014    9       29     7  16    4.82   521.6    3.7      48.410
2014    9       29     7  22    4.82   521.5    3.7      48.383
2014    9       29     7  27    4.82   521.3    3.7      48.356
2014    9       29     7  33    4.82   521.2    3.7      48.328
2014    9       29     7  38    4.82   521.0    3.7      48.301
2014    9       29     7  43    4.82   520.9    3.7      48.273
2014    9       29     7  49    4.82   520.7    3.7      48.245
2014    9       29     7  54    4.82   520.5    3.7      48.218
2014    9       29     8   0    4.82   520.4    3.7      48.190
2014    9       29     8   5    4.82   520.2    3.7      48.162
2014    9       29     8  10    4.82   520.1    3.7      48.134
2014    9       29     8  16    4.81   519.9    3.7      48.107
2014    9       29     8  21    4.81   519.7    3.7      48.079
2014    9       29     8  27    4.81   519.6    3.7      48.052
2014    9       29     8  32    4.81   519.4    3.7      48.025
2014    9       29     8  38    4.81   519.3    3.7      47.997
2014    9       29     8  43    4.81   519.1    3.7      47.971
2014    9       29     8  48    4.81   518.9    3.7      47.944
2014    9       29     8  54    4.81   518.8    3.7      47.918
2014    9       29     8  59    4.81   518.6    3.7      47.892
2014    9       29     9   5    4.81   518.4    3.7      47.866
2014    9       29     9  10    4.81   518.3    3.7      47.841
2014    9       29     9  15    4.81   518.1    3.7      47.816
2014    9       29     9  21    4.81   517.9    3.7      47.792
2014    9       29     9  26    4.81   517.8    3.7      47.768
2014    9       29     9  32    4.81   517.6    3.7      47.744
2014    9       29     9  37    4.81   517.4    3.7      47.721
2014    9       29     9  42    4.81   517.3    3.7      47.698
2014    9       29     9  48    4.81   517.1    3.7      47.675
2014    9       29     9  53    4.81   516.9    3.7      47.653
2014    9       29     9  59    4.81   516.8    3.7      47.632
2014    9       29    10   4    4.81   516.6    3.7      47.610
2014    9       29    10   9    4.81   516.4    3.7      47.589
2014    9       29    10  15    4.81   516.3    3.7      47.568
2014    9       29    10  20    4.81   516.1    3.7      47.548
2014    9       29    10  26    4.81   515.9    3.8      47.528
2014    9       29    10  31    4.81   515.8    3.8      47.508
2014    9       29    10  36    4.81   515.6    3.8      47.488
2014    9       29    10  42    4.81   515.5    3.8      47.468
2014    9       29    10  47    4.81   515.3    3.8      47.449
2014    9       29    10  53    4.81   515.1    3.8      47.429
2014    9       29    10  58    4.81   515.0    3.8      47.410
2014    9       29    11   3    4.81   514.8    3.8      47.391
2014    9       29    11   9    4.81   514.7    3.8      47.371
2014    9       29    11  14    4.81   514.5    3.8      47.352
2014    9       29    11  20    4.81   514.3    3.8      47.333
2014    9       29    11  25    4.81   514.2    3.8      47.313
2014    9       29    11  31    4.81   514.0    3.8      47.294
2014    9       29    11  36    4.81   513.8    3.8      47.274
2014    9       29    11  41    4.81   513.7    3.8      47.254
2014    9       29    11  47    4.81   513.5    3.8      47.234
2014    9       29    11  52    4.81   513.3    3.8      47.215
2014    9       29    11  58    4.80   513.2    3.8      47.195
2014    9       29    12   3    4.80   513.0    3.8      47.175
2014    9       29    12   8    4.80   512.8    3.8      47.155
2014    9       29    12  14    4.80   512.7    3.8      47.135
2014    9       29    12  19    4.80   512.5    3.8      47.115
2014    9       29    12  25    4.80   512.3    3.8      47.095
2014    9       29    12  30    4.80   512.1    3.8      47.075
2014    9       29    12  35    4.80   512.0    3.8      47.056
2014    9       29    12  41    4.80   511.8    3.8      47.036
2014    9       29    12  46    4.80   511.6    3.8      47.016
2014    9       29    12  52    4.80   511.5    3.8      46.996
2014    9       29    12  57    4.80   511.3    3.8      46.976
2014    9       29    13   2    4.80   511.1    3.8      46.955
2014    9       29    13   8    4.80   511.0    3.8      46.935
2014    9       29    13  13    4.80   510.8    3.8      46.914
2014    9       29    13  19    4.80   510.6    3.8      46.893
2014    9       29    13  24    4.80   510.5    3.8      46.871
2014    9       29    13  29    4.80   510.3    3.8      46.849
2014    9       29    13  35    4.80   510.1    3.8      46.827
2014    9       29    13  40    4.80   510.0    3.8      46.804
2014    9       29    13  46    4.80   509.8    3.8      46.781
2014    9       29    13  51    4.80   509.6    3.8      46.758
2014    9       29    13  57    4.80   509.4    3.8      46.734
2014    9       29    14   2    4.80   509.3    3.8      46.710
2014    9       29    14   7    4.80   509.1    3.8      46.686
2014    9       29    14  13    4.80   508.9    3.8      46.661
2014    9       29    14  18    4.80   508.8    3.8      46.636
2014    9       29    14  24    4.80   508.6    3.8      46.610
2014    9       29    14  29    4.80   508.4    3.8      46.585
2014    9       29    14  34    4.80   508.3    3.9      46.559
2014    9       29    14  40    4.80   508.1    3.9      46.532
2014    9       29    14  45    4.80   507.9    3.9      46.506
2014    9       29    14  51    4.80   507.8    3.9      46.479
2014    9       29    14  56    4.80   507.6    3.9      46.452
2014    9       29    15   1    4.80   507.4    3.9      46.425
2014    9       29    15   7    4.80   507.3    3.9      46.398
2014    9       29    15  12    4.80   507.1    3.9      46.370
2014    9       29    15  18    4.80   506.9    3.9      46.342
2014    9       29    15  23    4.80   506.7    3.9      46.315
2014    9       29    15  28    4.80   506.6    3.9      46.286
2014    9       29    15  34    4.80   506.4    3.9      46.258
2014    9       29    15  39    4.80   506.2    3.9      46.230
2014    9       29    15  45    4.80   506.1    3.9      46.201
2014    9       29    15  50    4.80   505.9    3.9      46.173
2014    9       29    15  55    4.80   505.7    3.9      46.144
2014    9       29    16   1    4.80   505.5    3.9      46.115
2014    9       29    16   6    4.80   505.4    3.9      46.087
2014    9       29    16  12    4.80   505.2    3.9      46.058
2014    9       29    16  17    4.80   505.0    3.9      46.029
2014    9       29    16  23    4.80   504.9    3.9      46.001
2014    9       29    16  28    4.80   504.7    3.9      45.972
2014    9       29    16  33    4.80   504.5    3.9      45.943
2014    9       29    16  39    4.80   504.3    3.9      45.915
2014    9       29    16  44    4.80   504.2    3.9      45.886
2014    9       29    16  50    4.80   504.0    3.9      45.858
2014    9       29    16  55    4.80   503.8    3.9      45.830
2014    9       29    17   0    4.80   503.6    3.9      45.802
2014    9       29    17   6    4.80   503.5    3.9      45.774
2014    9       29    17  11    4.80   503.3    3.9      45.747
2014    9       29    17  17    4.80   503.1    3.9      45.719
2014    9       29    17  22    4.80   502.9    3.9      45.693
2014    9       29    17  27    4.80   502.7    3.9      45.666
2014    9       29    17  33    4.80   502.6    3.9      45.639
2014    9       29    17  38    4.80   502.4    3.9      45.613
2014    9       29    17  44    4.80   502.2    3.9      45.587
2014    9       29    17  49    4.80   502.0    3.9      45.562
2014    9       29    17  54    4.80   501.9    3.9      45.537
2014    9       29    18   0    4.80   501.7    3.9      45.512
2014    9       29    18   5    4.80   501.5    3.9      45.487
2014    9       29    18  11    4.80   501.3    3.9      45.463
2014    9       29    18  16    4.80   501.2    3.9      45.439
2014    9       29    18  21    4.80   501.0    3.9      45.415
2014    9       29    18  27    4.80   500.8    3.9      45.391
2014    9       29    18  32    4.80   500.7    3.9      45.367
2014    9       29    18  38    4.80   500.5    3.9      45.344
2014    9       29    18  43    4.80   500.3    4.0      45.320
2014    9       29    18  49    4.80   500.1    4.0      45.297
2014    9       29    18  54    4.80   500.0    4.0      45.273
2014    9       29    18  59    4.80   499.8    4.0      45.250
2014    9       29    19   5    4.80   499.6    4.0      45.226
2014    9       29    19  10    4.80   499.4    4.0      45.202
2014    9       29    19  16    4.80   499.3    4.0      45.179
2014    9       29    19  21    4.80   499.1    4.0      45.155
2014    9       29    19  26    4.80   498.9    4.0      45.131
2014    9       29    19  32    4.80   498.7    4.0      45.108
2014    9       29    19  37    4.80   498.6    4.0      45.084
2014    9       29    19  43    4.80   498.4    4.0      45.060
2014    9       29    19  48    4.80   498.2    4.0      45.036
2014    9       29    19  53    4.80   498.0    4.0      45.012
2014    9       29    19  59    4.80   497.8    4.0      44.988
2014    9       29    20   4    4.80   497.7    4.0      44.964
2014    9       29    20  10    4.81   497.5    4.0      44.939
2014    9       29    20  15    4.81   497.3    4.0      44.915
2014    9       29    20  20    4.81   497.1    4.0      44.891
2014    9       29    20  26    4.81   496.9    4.0      44.867
2014    9       29    20  31    4.81   496.8    4.0      44.843
2014    9       29    20  37    4.81   496.6    4.0      44.818
2014    9       29    20  42    4.81   496.4    4.0      44.794
2014    9       29    20  47    4.81   496.2    4.0      44.769
2014    9       29    20  53    4.81   496.1    4.0      44.745
2014    9       29    20  58    4.81   495.9    4.0      44.720
2014    9       29    21   4    4.81   495.7    4.0      44.695
2014    9       29    21   9    4.81   495.5    4.0      44.670
2014    9       29    21  14    4.81   495.3    4.0      44.645
2014    9       29    21  20    4.81   495.2    4.0      44.620
2014    9       29    21  25    4.81   495.0    4.0      44.595
2014    9       29    21  31    4.81   494.8    4.0      44.570
2014    9       29    21  36    4.81   494.6    4.0      44.544
2014    9       29    21  42    4.81   494.4    4.0      44.519
2014    9       29    21  47    4.81   494.3    4.0      44.493
2014    9       29    21  52    4.81   494.1    4.1      44.467
2014    9       29    21  58    4.81   493.9    4.1      44.441
2014    9       29    22   3    4.81   493.7    4.1      44.415
2014    9       29    22   9    4.81   493.5    4.1      44.389
2014    9       29    22  14    4.81   493.4    4.1      44.362
2014    9       29    22  19    4.81   493.2    4.1      44.336
2014    9       29    22  25    4.81   493.0    4.1      44.309
2014    9       29    22  30    4.81   492.8    4.1      44.282
2014    9       29    22  36    4.81   492.6    4.1      44.256
2014    9       29    22  41    4.82   492.4    4.1      44.229
2014    9       29    22  46    4.82   492.3    4.1      44.202
2014    9       29    22  52    4.82   492.1    4.1      44.175
2014    9       29    22  57    4.82   491.9    4.1      44.148
2014    9       29    23   3    4.82   491.7    4.1      44.121
2014    9       29    23   8    4.82   491.5    4.1      44.094
2014    9       29    23  13    4.82   491.4    4.1      44.067
2014    9       29    23  19    4.82   491.2    4.1      44.040
2014    9       29    23  24    4.82   491.0    4.1      44.013
2014    9       29    23  30    4.82   490.8    4.1      43.986
2014    9       29    23  35    4.82   490.6    4.1      43.959
2014    9       29    23  40    4.82   490.5    4.1      43.931
2014    9       29    23  46    4.82   490.3    4.1      43.904
2014    9       29    23  51    4.82   490.1    4.1      43.877
2014    9       29    23  57    4.82   489.9    4.1      43.850
2014    9       30     0   2    4.82   489.7    4.1      43.823
2014    9       30     0   8    4.82   489.6    4.1      43.796
2014    9       30     0  13    4.83   489.4    4.1      43.768
2014    9       30     0  18    4.83   489.2    4.1      43.741
2014    9       30     0  24    4.83   489.0    4.1      43.714
2014    9       30     0  29    4.83   488.8    4.1      43.687
2014    9       30     0  35    4.83   488.7    4.1      43.660
2014    9       30     0  40    4.83   488.5    4.1      43.633
2014    9       30     0  45    4.83   488.3    4.2      43.606
2014    9       30     0  51    4.83   488.1    4.2      43.579
2014    9       30     0  56    4.83   487.9    4.2      43.552
2014    9       30     1   2    4.83   487.8    4.2      43.525
2014    9       30     1   7    4.83   487.6    4.2      43.498
2014    9       30     1  12    4.83   487.4    4.2      43.471
2014    9       30     1  18    4.83   487.2    4.2      43.444
2014    9       30     1  23    4.83   487.0    4.2      43.417
2014    9       30     1  29    4.83   486.9    4.2      43.390
2014    9       30     1  34    4.84   486.7    4.2      43.363
2014    9       30     1  39    4.84   486.5    4.2      43.336
2014    9       30     1  45    4.84   486.3    4.2      43.310
2014    9       30     1  50    4.84   486.1    4.2      43.283
2014    9       30     1  56    4.84   485.9    4.2      43.256
2014    9       30     2   1    4.84   485.8    4.2      43.229
2014    9       30     2   6    4.84   485.6    4.2      43.203
2014    9       30     2  12    4.84   485.4    4.2      43.176
2014    9       30     2  17    4.84   485.2    4.2      43.149
2014    9       30     2  23    4.84   485.1    4.2      43.122
2014    9       30     2  28    4.84   484.9    4.2      43.096
2014    9       30     2  34    4.84   484.7    4.2      43.069
2014    9       30     2  39    4.85   484.5    4.2      43.042
2014    9       30     2  44    4.85   484.3    4.2      43.015
2014    9       30     2  50    4.85   484.1    4.2      42.989
2014    9       30     2  55    4.85   484.0    4.2      42.962
2014    9       30     3   1    4.85   483.8    4.2      42.935
2014    9       30     3   6    4.85   483.6    4.2      42.908
2014    9       30     3  11    4.85   483.4    4.3      42.882
2014    9       30     3  17    4.85   483.2    4.3      42.855
2014    9       30     3  22    4.85   483.1    4.3      42.828
2014    9       30     3  28    4.85   482.9    4.3      42.802
2014    9       30     3  33    4.85   482.7    4.3      42.775
2014    9       30     3  38    4.86   482.5    4.3      42.749
2014    9       30     3  44    4.86   482.3    4.3      42.722
2014    9       30     3  49    4.86   482.2    4.3      42.696
2014    9       30     3  55    4.86   482.0    4.3      42.669
2014    9       30     4   0    4.86   481.8    4.3      42.643
2014    9       30     4   5    4.86   481.6    4.3      42.617
2014    9       30     4  11    4.86   481.4    4.3      42.591
2014    9       30     4  16    4.86   481.3    4.3      42.565
2014    9       30     4  22    4.86   481.1    4.3      42.539
2014    9       30     4  27    4.87   480.9    4.3      42.514
2014    9       30     4  32    4.87   480.7    4.3      42.488
2014    9       30     4  38    4.87   480.5    4.3      42.463
2014    9       30     4  43    4.87   480.3    4.3      42.438
2014    9       30     4  49    4.87   480.2    4.3      42.413
2014    9       30     4  54    4.87   480.0    4.3      42.388
2014    9       30     5   0    4.87   479.8    4.3      42.364
2014    9       30     5   5    4.87   479.6    4.3      42.339
2014    9       30     5  10    4.88   479.5    4.3      42.315
2014    9       30     5  16    4.88   479.3    4.3      42.291
2014    9       30     5  21    4.88   479.1    4.4      42.267
2014    9       30     5  27    4.88   478.9    4.4      42.244
2014    9       30     5  32    4.88   478.8    4.4      42.220
2014    9       30     5  37    4.88   478.6    4.4      42.197
2014    9       30     5  43    4.88   478.4    4.4      42.174
2014    9       30     5  48    4.89   478.2    4.4      42.151
2014    9       30     5  54    4.89   478.1    4.4      42.128
2014    9       30     5  59    4.89   477.9    4.4      42.105
2014    9       30     6   4    4.89   477.7    4.4      42.082
2014    9       30     6  10    4.89   477.5    4.4      42.059
2014    9       30     6  15    4.89   477.4    4.4      42.037
2014    9       30     6  21    4.90   477.2    4.4      42.014
2014    9       30     6  26    4.90   477.0    4.4      41.991
2014    9       30     6  31    4.90   476.9    4.4      41.969
2014    9       30     6  37    4.90   476.7    4.4      41.946
2014    9       30     6  42    4.90   476.5    4.4      41.923
2014    9       30     6  48    4.90   476.4    4.4      41.901
2014    9       30     6  53    4.90   476.2    4.4      41.878
2014    9       30     6  58    4.91   476.0    4.4      41.855
2014    9       30     7   4    4.91   475.9    4.4      41.832
2014    9       30     7   9    4.91   475.7    4.4      41.810
2014    9       30     7  15    4.91   475.5    4.5      41.787
2014    9       30     7  20    4.91   475.4    4.5      41.764
2014    9       30     7  25    4.91   475.2    4.5      41.741
2014    9       30     7  31    4.92   475.0    4.5      41.718
2014    9       30     7  36    4.92   474.9    4.5      41.695
2014    9       30     7  42    4.92   474.7    4.5      41.672
2014    9       30     7  47    4.92   474.5    4.5      41.649
2014    9       30     7  53    4.92   474.4    4.5      41.626
2014    9       30     7  58    4.92   474.2    4.5      41.602
2014    9       30     8   3    4.93   474.0    4.5      41.579
2014    9       30     8   9    4.93   473.9    4.5      41.556
2014    9       30     8  14    4.93   473.7    4.5      41.533
2014    9       30     8  20    4.93   473.6    4.5      41.510
2014    9       30     8  25    4.93   473.4    4.5      41.487
2014    9       30     8  30    4.94   473.2    4.5      41.465
2014    9       30     8  36    4.94   473.1    4.5      41.442
2014    9       30     8  41    4.94   472.9    4.5      41.419
2014    9       30     8  47    4.94   472.7    4.5      41.397
2014    9       30     8  52    4.94   472.6    4.5      41.375
2014    9       30     8  57    4.94   472.4    4.5      41.352
2014    9       30     9   3    4.95   472.3    4.6      41.331
2014    9       30     9   8    4.95   472.1    4.6      41.309
2014    9       30     9  14    4.95   471.9    4.6      41.287
2014    9       30     9  19    4.95   471.8    4.6      41.266
2014    9       30     9  24    4.95   471.6    4.6      41.245
2014    9       30     9  30    4.96   471.5    4.6      41.224
2014    9       30     9  35    4.96   471.3    4.6      41.203
2014    9       30     9  41    4.96   471.2    4.6      41.183
2014    9       30     9  46    4.96   471.0    4.6      41.163
2014    9       30     9  51    4.96   470.9    4.6      41.143
2014    9       30     9  57    4.97   470.7    4.6      41.123
2014    9       30    10   2    4.97   470.6    4.6      41.104
2014    9       30    10   8    4.97   470.4    4.6      41.085
2014    9       30    10  13    4.97   470.2    4.6      41.066
2014    9       30    10  19    4.97   470.1    4.6      41.047
2014    9       30    10  24    4.98   469.9    4.6      41.029
2014    9       30    10  29    4.98   469.8    4.6      41.011
2014    9       30    10  35    4.98   469.7    4.6      40.993
2014    9       30    10  40    4.98   469.5    4.7      40.975
2014    9       30    10  46    4.98   469.4    4.7      40.957
2014    9       30    10  51    4.99   469.2    4.7      40.940
2014    9       30    10  56    4.99   469.1    4.7      40.922
2014    9       30    11   2    4.99   468.9    4.7      40.905
2014    9       30    11   7    4.99   468.8    4.7      40.888
2014    9       30    11  13    5.00   468.6    4.7      40.871
2014    9       30    11  18    5.00   468.5    4.7      40.855
2014    9       30    11  23    5.00   468.3    4.7      40.838
2014    9       30    11  29    5.00   468.2    4.7      40.822
2014    9       30    11  34    5.00   468.1    4.7      40.806
2014    9       30    11  40    5.01   467.9    4.7      40.790
2014    9       30    11  45    5.01   467.8    4.7      40.775
2014    9       30    11  50    5.01   467.6    4.7      40.759
2014    9       30    11  56    5.01   467.5    4.7      40.744
2014    9       30    12   1    5.02   467.4    4.7      40.729
2014    9       30    12   7    5.02   467.2    4.7      40.714
2014    9       30    12  12    5.02   467.1    4.8      40.699
2014    9       30    12  17    5.02   466.9    4.8      40.684
2014    9       30    12  23    5.03   466.8    4.8      40.669
2014    9       30    12  28    5.03   466.7    4.8      40.654
2014    9       30    12  34    5.03   466.5    4.8      40.640
2014    9       30    12  39    5.03   466.4    4.8      40.625
2014    9       30    12  45    5.04   466.3    4.8      40.611
2014    9       30    12  50    5.04   466.1    4.8      40.596
2014    9       30    12  55    5.04   466.0    4.8      40.582
2014    9       30    13   1    5.04   465.9    4.8      40.568
2014    9       30    13   6    5.05   465.8    4.8      40.553
2014    9       30    13  12    5.05   465.6    4.8      40.539
2014    9       30    13  17    5.05   465.5    4.8      40.525
2014    9       30    13  22    5.05   465.4    4.8      40.510
2014    9       30    13  28    5.06   465.3    4.8      40.496
2014    9       30    13  33    5.06   465.1    4.8      40.482
2014    9       30    13  39    5.06   465.0    4.9      40.468
2014    9       30    13  44    5.06   464.9    4.9      40.453
2014    9       30    13  49    5.07   464.8    4.9      40.439
2014    9       30    13  55    5.07   464.6    4.9      40.425
2014    9       30    14   0    5.07   464.5    4.9      40.411
2014    9       30    14   6    5.07   464.4    4.9      40.396
2014    9       30    14  11    5.08   464.3    4.9      40.382
2014    9       30    14  16    5.08   464.2    4.9      40.367
2014    9       30    14  22    5.08   464.1    4.9      40.353
2014    9       30    14  27    5.08   463.9    4.9      40.339
2014    9       30    14  33    5.09   463.8    4.9      40.324
2014    9       30    14  38    5.09   463.7    4.9      40.310
2014    9       30    14  43    5.09   463.6    4.9      40.295
2014    9       30    14  49    5.09   463.5    4.9      40.281
2014    9       30    14  54    5.10   463.4    4.9      40.266
2014    9       30    15   0    5.10   463.3    4.9      40.252
2014    9       30    15   5    5.10   463.1    4.9      40.238
2014    9       30    15  11    5.11   463.0    5.0      40.223
2014    9       30    15  16    5.11   462.9    5.0      40.209
2014    9       30    15  21    5.11   462.8    5.0      40.195
2014    9       30    15  27    5.11   462.7    5.0      40.180
2014    9       30    15  32    5.12   462.6    5.0      40.166
2014    9       30    15  38    5.12   462.5    5.0      40.152
2014    9       30    15  43    5.12   462.4    5.0      40.139
2014    9       30    15  48    5.12   462.3    5.0      40.125
2014    9       30    15  54    5.13   462.2    5.0      40.111
2014    9       30    15  59    5.13   462.1    5.0      40.098
2014    9       30    16   5    5.13   462.0    5.0      40.085
2014    9       30    16  10    5.13   461.9    5.0      40.072
2014    9       30    16  15    5.14   461.8    5.0      40.060
2014    9       30    16  21    5.14   461.7    5.0      40.047
2014    9       30    16  26    5.14   461.6    5.0      40.035
2014    9       30    16  32    5.15   461.5    5.0      40.024
2014    9       30    16  37    5.15   461.4    5.0      40.013
2014    9       30    16  42    5.15   461.3    5.1      40.002
2014    9       30    16  48    5.15   461.2    5.1      39.992
2014    9       30    16  53    5.16   461.1    5.1      39.983
2014    9       30    16  59    5.16   461.0    5.1      39.974
2014    9       30    17   4    5.16   460.9    5.1      39.965
2014    9       30    17   9    5.16   460.8    5.1      39.957
2014    9       30    17  15    5.17   460.7    5.1      39.949
2014    9       30    17  20    5.17   460.6    5.1      39.941
2014    9       30    17  26    5.17   460.5    5.1      39.934
2014    9       30    17  31    5.17   460.5    5.1      39.927
2014    9       30    17  37    5.18   460.4    5.1      39.920
2014    9       30    17  42    5.18   460.3    5.1      39.913
2014    9       30    17  47    5.18   460.2    5.1      39.905
2014    9       30    17  53    5.19   460.1    5.1      39.898
2014    9       30    17  58    5.19   460.0    5.1      39.891
2014    9       30    18   4    5.19   459.9    5.1      39.884
2014    9       30    18   9    5.19   459.9    5.2      39.877
2014    9       30    18  14    5.20   459.8    5.2      39.870
2014    9       30    18  20    5.20   459.7    5.2      39.863
2014    9       30    18  25    5.20   459.6    5.2      39.856
2014    9       30    18  31    5.20   459.5    5.2      39.849
2014    9       30    18  36    5.21   459.5    5.2      39.841
2014    9       30    18  41    5.21   459.4    5.2      39.834
2014    9       30    18  47    5.21   459.3    5.2      39.827
2014    9       30    18  52    5.21   459.2    5.2      39.820
2014    9       30    18  58    5.22   459.1    5.2      39.812
2014    9       30    19   3    5.22   459.1    5.2      39.805
2014    9       30    19   8    5.22   459.0    5.2      39.797
2014    9       30    19  14    5.23   458.9    5.2      39.790
2014    9       30    19  19    5.23   458.8    5.2      39.782
2014    9       30    19  25    5.23   458.8    5.2      39.775
2014    9       30    19  30    5.23   458.7    5.2      39.767
2014    9       30    19  35    5.24   458.6    5.2      39.758
2014    9       30    19  41    5.24   458.5    5.2      39.750
2014    9       30    19  46    5.24   458.5    5.3      39.742
2014    9       30    19  52    5.24   458.4    5.3      39.734
2014    9       30    19  57    5.25   458.3    5.3      39.725
2014    9       30    20   3    5.25   458.3    5.3      39.717
2014    9       30    20   8    5.25   458.2    5.3      39.708
2014    9       30    20  13    5.25   458.1    5.3      39.700
2014    9       30    20  19    5.26   458.0    5.3      39.691
2014    9       30    20  24    5.26   458.0    5.3      39.682
2014    9       30    20  30    5.26   457.9    5.3      39.674
2014    9       30    20  35    5.27   457.8    5.3      39.665
2014    9       30    20  40    5.27   457.8    5.3      39.657
2014    9       30    20  46    5.27   457.7    5.3      39.648
2014    9       30    20  51    5.27   457.6    5.3      39.640
2014    9       30    20  57    5.28   457.6    5.3      39.631
2014    9       30    21   2    5.28   457.5    5.3      39.623
2014    9       30    21   7    5.28   457.4    5.3      39.614
2014    9       30    21  13    5.28   457.4    5.3      39.606
2014    9       30    21  18    5.29   457.3    5.3      39.598
2014    9       30    21  24    5.29   457.3    5.3      39.590
2014    9       30    21  29    5.29   457.2    5.3      39.583
2014    9       30    21  34    5.30   457.1    5.3      39.575
2014    9       30    21  40    5.30   457.1    5.4      39.567
2014    9       30    21  45    5.30   457.0    5.4      39.560
2014    9       30    21  51    5.30   457.0    5.4      39.553
2014    9       30    21  56    5.31   456.9    5.4      39.545
2014    9       30    22   1    5.31   456.9    5.4      39.538
2014    9       30    22   7    5.31   456.8    5.4      39.531
2014    9       30    22  12    5.31   456.7    5.4      39.524
2014    9       30    22  18    5.32   456.7    5.4      39.517
2014    9       30    22  23    5.32   456.6    5.4      39.510
2014    9       30    22  28    5.32   456.6    5.4      39.503
2014    9       30    22  34    5.32   456.5    5.4      39.496
2014    9       30    22  39    5.33   456.5    5.4      39.490
2014    9       30    22  45    5.33   456.4    5.4      39.483
2014    9       30    22  50    5.33   456.4    5.4      39.476
2014    9       30    22  56    5.33   456.3    5.4      39.469
2014    9       30    23   1    5.34   456.3    5.4      39.463
2014    9       30    23   6    5.34   456.2    5.4      39.456
2014    9       30    23  12    5.34   456.2    5.4      39.450
2014    9       30    23  17    5.34   456.1    5.4      39.443
2014    9       30    23  23    5.35   456.1    5.4      39.437
2014    9       30    23  28    5.35   456.0    5.4      39.430
2014    9       30    23  33    5.35   456.0    5.4      39.424
2014    9       30    23  39    5.35   455.9    5.5      39.418
2014    9       30    23  44    5.36   455.9    5.5      39.411
2014    9       30    23  50    5.36   455.8    5.5      39.406
2014    9       30    23  55    5.36   455.8    5.5      39.400
2014   10        1     0   0    5.36   455.8    5.5      39.394
