year    month   day   hour  minute  B_enl V_enl   n_enl       T_enl
[year] [month] [day] [hour][minute] [nT]  [km/s]  [cm-3]      [kK]
2014    9       22     0   2    6.60   564.2    4.5      52.895
2014    9       22     0   8    6.60   564.2    4.5      52.863
2014    9       22     0  13    6.59   564.2    4.5      52.831
2014    9       22     0  18    6.59   564.2    4.5      52.798
2014    9       22     0  24    6.59   564.2    4.5      52.767
2014    9       22     0  29    6.58   564.1    4.5      52.735
2014    9       22     0  35    6.58   564.1    4.5      52.704
2014    9       22     0  40    6.58   564.1    4.5      52.674
2014    9       22     0  45    6.57   564.1    4.5      52.643
2014    9       22     0  51    6.57   564.1    4.5      52.613
2014    9       22     0  56    6.56   564.1    4.5      52.584
2014    9       22     1   1    6.56   564.0    4.5      52.554
2014    9       22     1   7    6.56   564.0    4.5      52.525
2014    9       22     1  12    6.55   564.0    4.5      52.497
2014    9       22     1  18    6.55   564.0    4.5      52.468
2014    9       22     1  23    6.55   564.0    4.4      52.440
2014    9       22     1  28    6.55   563.9    4.4      52.412
2014    9       22     1  34    6.54   563.9    4.4      52.385
2014    9       22     1  39    6.54   563.9    4.4      52.357
2014    9       22     1  45    6.54   563.9    4.4      52.330
2014    9       22     1  50    6.53   563.9    4.4      52.303
2014    9       22     1  55    6.53   563.8    4.4      52.276
2014    9       22     2   1    6.53   563.8    4.4      52.248
2014    9       22     2   6    6.52   563.8    4.4      52.221
2014    9       22     2  11    6.52   563.8    4.4      52.194
2014    9       22     2  17    6.52   563.8    4.4      52.167
2014    9       22     2  22    6.52   563.7    4.4      52.140
2014    9       22     2  28    6.51   563.7    4.4      52.113
2014    9       22     2  33    6.51   563.7    4.4      52.085
2014    9       22     2  38    6.51   563.7    4.4      52.058
2014    9       22     2  44    6.50   563.6    4.4      52.031
2014    9       22     2  49    6.50   563.6    4.4      52.003
2014    9       22     2  55    6.50   563.6    4.4      51.976
2014    9       22     3   0    6.49   563.6    4.4      51.949
2014    9       22     3   5    6.49   563.5    4.4      51.921
2014    9       22     3  11    6.49   563.5    4.4      51.894
2014    9       22     3  16    6.49   563.5    4.4      51.867
2014    9       22     3  21    6.48   563.5    4.4      51.840
2014    9       22     3  27    6.48   563.5    4.4      51.813
2014    9       22     3  32    6.48   563.4    4.4      51.786
2014    9       22     3  38    6.48   563.4    4.4      51.759
2014    9       22     3  43    6.47   563.4    4.4      51.732
2014    9       22     3  48    6.47   563.4    4.4      51.706
2014    9       22     3  54    6.47   563.3    4.4      51.680
2014    9       22     3  59    6.46   563.3    4.4      51.654
2014    9       22     4   5    6.46   563.3    4.4      51.628
2014    9       22     4  10    6.46   563.3    4.4      51.602
2014    9       22     4  15    6.46   563.2    4.4      51.577
2014    9       22     4  21    6.45   563.2    4.4      51.552
2014    9       22     4  26    6.45   563.2    4.4      51.527
2014    9       22     4  32    6.45   563.2    4.4      51.502
2014    9       22     4  37    6.44   563.2    4.4      51.478
2014    9       22     4  42    6.44   563.1    4.4      51.454
2014    9       22     4  48    6.44   563.1    4.4      51.430
2014    9       22     4  53    6.44   563.1    4.4      51.407
2014    9       22     4  58    6.43   563.1    4.4      51.383
2014    9       22     5   4    6.43   563.0    4.4      51.361
2014    9       22     5   9    6.43   563.0    4.4      51.338
2014    9       22     5  15    6.43   563.0    4.4      51.315
2014    9       22     5  20    6.42   563.0    4.3      51.293
2014    9       22     5  25    6.42   563.0    4.3      51.271
2014    9       22     5  31    6.42   562.9    4.3      51.249
2014    9       22     5  36    6.42   562.9    4.3      51.228
2014    9       22     5  42    6.41   562.9    4.3      51.206
2014    9       22     5  47    6.41   562.9    4.3      51.185
2014    9       22     5  52    6.41   562.8    4.3      51.164
2014    9       22     5  58    6.41   562.8    4.3      51.144
2014    9       22     6   3    6.40   562.8    4.3      51.123
2014    9       22     6   9    6.40   562.8    4.3      51.103
2014    9       22     6  14    6.40   562.7    4.3      51.083
2014    9       22     6  19    6.40   562.7    4.3      51.063
2014    9       22     6  25    6.39   562.7    4.3      51.043
2014    9       22     6  30    6.39   562.6    4.3      51.024
2014    9       22     6  35    6.39   562.6    4.3      51.005
2014    9       22     6  41    6.39   562.6    4.3      50.986
2014    9       22     6  46    6.39   562.5    4.3      50.967
2014    9       22     6  52    6.38   562.5    4.3      50.949
2014    9       22     6  57    6.38   562.5    4.3      50.931
2014    9       22     7   2    6.38   562.5    4.3      50.914
2014    9       22     7   8    6.38   562.4    4.3      50.897
2014    9       22     7  13    6.38   562.4    4.3      50.880
2014    9       22     7  19    6.37   562.4    4.3      50.864
2014    9       22     7  24    6.37   562.3    4.3      50.848
2014    9       22     7  29    6.37   562.3    4.3      50.833
2014    9       22     7  35    6.37   562.3    4.3      50.818
2014    9       22     7  40    6.37   562.2    4.3      50.804
2014    9       22     7  45    6.36   562.2    4.3      50.791
2014    9       22     7  51    6.36   562.2    4.3      50.778
2014    9       22     7  56    6.36   562.1    4.3      50.766
2014    9       22     8   2    6.36   562.1    4.3      50.754
2014    9       22     8   7    6.36   562.1    4.3      50.743
2014    9       22     8  12    6.35   562.0    4.3      50.731
2014    9       22     8  18    6.35   562.0    4.3      50.720
2014    9       22     8  23    6.35   562.0    4.3      50.708
2014    9       22     8  29    6.35   561.9    4.3      50.696
2014    9       22     8  34    6.35   561.9    4.3      50.683
2014    9       22     8  39    6.35   561.9    4.3      50.670
2014    9       22     8  45    6.34   561.8    4.3      50.657
2014    9       22     8  50    6.34   561.8    4.3      50.643
2014    9       22     8  56    6.34   561.7    4.3      50.629
2014    9       22     9   1    6.34   561.7    4.3      50.614
2014    9       22     9   6    6.34   561.7    4.3      50.599
2014    9       22     9  12    6.33   561.6    4.3      50.584
2014    9       22     9  17    6.33   561.6    4.3      50.567
2014    9       22     9  22    6.33   561.6    4.3      50.551
2014    9       22     9  28    6.33   561.5    4.3      50.534
2014    9       22     9  33    6.33   561.5    4.3      50.517
2014    9       22     9  39    6.33   561.5    4.3      50.499
2014    9       22     9  44    6.32   561.4    4.3      50.480
2014    9       22     9  49    6.32   561.4    4.3      50.462
2014    9       22     9  55    6.32   561.3    4.3      50.443
2014    9       22    10   0    6.32   561.3    4.3      50.424
2014    9       22    10   6    6.32   561.3    4.3      50.404
2014    9       22    10  11    6.32   561.2    4.3      50.384
2014    9       22    10  16    6.31   561.2    4.3      50.364
2014    9       22    10  22    6.31   561.1    4.3      50.343
2014    9       22    10  27    6.31   561.1    4.3      50.323
2014    9       22    10  32    6.31   561.1    4.3      50.302
2014    9       22    10  38    6.31   561.0    4.3      50.281
2014    9       22    10  43    6.31   561.0    4.3      50.259
2014    9       22    10  49    6.31   560.9    4.3      50.238
2014    9       22    10  54    6.30   560.9    4.3      50.216
2014    9       22    10  59    6.30   560.9    4.3      50.194
2014    9       22    11   5    6.30   560.8    4.3      50.172
2014    9       22    11  10    6.30   560.8    4.3      50.150
2014    9       22    11  16    6.30   560.7    4.3      50.128
2014    9       22    11  21    6.30   560.7    4.3      50.106
2014    9       22    11  26    6.29   560.7    4.3      50.084
2014    9       22    11  32    6.29   560.6    4.3      50.062
2014    9       22    11  37    6.29   560.6    4.3      50.040
2014    9       22    11  43    6.29   560.5    4.3      50.018
2014    9       22    11  48    6.29   560.5    4.3      49.996
2014    9       22    11  53    6.29   560.5    4.3      49.974
2014    9       22    11  59    6.29   560.4    4.3      49.952
2014    9       22    12   4    6.28   560.4    4.3      49.931
2014    9       22    12   9    6.28   560.3    4.3      49.909
2014    9       22    12  15    6.28   560.3    4.3      49.888
2014    9       22    12  20    6.28   560.3    4.3      49.867
2014    9       22    12  26    6.28   560.2    4.3      49.846
2014    9       22    12  31    6.28   560.2    4.3      49.825
2014    9       22    12  36    6.28   560.1    4.3      49.805
2014    9       22    12  42    6.27   560.1    4.3      49.785
2014    9       22    12  47    6.27   560.1    4.3      49.766
2014    9       22    12  53    6.27   560.0    4.3      49.746
2014    9       22    12  58    6.27   560.0    4.3      49.727
2014    9       22    13   3    6.27   559.9    4.3      49.709
2014    9       22    13   9    6.27   559.9    4.3      49.691
2014    9       22    13  14    6.27   559.9    4.3      49.673
2014    9       22    13  20    6.26   559.8    4.3      49.656
2014    9       22    13  25    6.26   559.8    4.3      49.639
2014    9       22    13  30    6.26   559.8    4.3      49.623
2014    9       22    13  36    6.26   559.7    4.3      49.607
2014    9       22    13  41    6.26   559.7    4.3      49.592
2014    9       22    13  46    6.26   559.6    4.3      49.577
2014    9       22    13  52    6.26   559.6    4.3      49.563
2014    9       22    13  57    6.26   559.6    4.3      49.550
2014    9       22    14   3    6.26   559.5    4.3      49.536
2014    9       22    14   8    6.25   559.5    4.3      49.524
2014    9       22    14  13    6.25   559.5    4.3      49.512
2014    9       22    14  19    6.25   559.4    4.3      49.501
2014    9       22    14  24    6.25   559.4    4.3      49.490
2014    9       22    14  30    6.25   559.4    4.3      49.480
2014    9       22    14  35    6.25   559.3    4.3      49.471
2014    9       22    14  40    6.25   559.3    4.3      49.462
2014    9       22    14  46    6.25   559.3    4.3      49.454
2014    9       22    14  51    6.25   559.2    4.3      49.447
2014    9       22    14  56    6.24   559.2    4.3      49.440
2014    9       22    15   2    6.24   559.2    4.3      49.434
2014    9       22    15   7    6.24   559.1    4.3      49.429
2014    9       22    15  13    6.24   559.1    4.3      49.424
2014    9       22    15  18    6.24   559.1    4.3      49.420
2014    9       22    15  23    6.24   559.1    4.3      49.416
2014    9       22    15  29    6.24   559.0    4.3      49.411
2014    9       22    15  34    6.24   559.0    4.3      49.407
2014    9       22    15  40    6.23   559.0    4.3      49.402
2014    9       22    15  45    6.23   558.9    4.3      49.397
2014    9       22    15  50    6.23   558.9    4.3      49.392
2014    9       22    15  56    6.23   558.9    4.3      49.386
2014    9       22    16   1    6.23   558.8    4.3      49.380
2014    9       22    16   7    6.23   558.8    4.3      49.374
2014    9       22    16  12    6.23   558.7    4.3      49.367
2014    9       22    16  17    6.23   558.7    4.3      49.361
2014    9       22    16  23    6.23   558.7    4.3      49.354
2014    9       22    16  28    6.22   558.6    4.3      49.347
2014    9       22    16  33    6.22   558.6    4.3      49.339
2014    9       22    16  39    6.22   558.6    4.3      49.332
2014    9       22    16  44    6.22   558.5    4.3      49.324
2014    9       22    16  50    6.22   558.5    4.3      49.316
2014    9       22    16  55    6.22   558.4    4.3      49.308
2014    9       22    17   0    6.22   558.4    4.3      49.300
2014    9       22    17   6    6.22   558.4    4.3      49.292
2014    9       22    17  11    6.22   558.3    4.3      49.283
2014    9       22    17  17    6.21   558.3    4.3      49.275
2014    9       22    17  22    6.21   558.2    4.3      49.266
2014    9       22    17  27    6.21   558.2    4.3      49.257
2014    9       22    17  33    6.21   558.2    4.3      49.248
2014    9       22    17  38    6.21   558.1    4.3      49.239
2014    9       22    17  43    6.21   558.1    4.3      49.230
2014    9       22    17  49    6.21   558.0    4.3      49.220
2014    9       22    17  54    6.21   558.0    4.3      49.211
2014    9       22    18   0    6.21   558.0    4.3      49.201
2014    9       22    18   5    6.21   557.9    4.3      49.190
2014    9       22    18  10    6.20   557.9    4.3      49.179
2014    9       22    18  16    6.20   557.9    4.3      49.168
2014    9       22    18  21    6.20   557.8    4.3      49.157
2014    9       22    18  27    6.20   557.8    4.3      49.145
2014    9       22    18  32    6.20   557.7    4.3      49.133
2014    9       22    18  37    6.20   557.7    4.3      49.121
2014    9       22    18  43    6.20   557.7    4.3      49.108
2014    9       22    18  48    6.20   557.6    4.3      49.095
2014    9       22    18  54    6.20   557.6    4.3      49.082
2014    9       22    18  59    6.20   557.5    4.3      49.068
2014    9       22    19   4    6.20   557.5    4.3      49.054
2014    9       22    19  10    6.19   557.5    4.3      49.041
2014    9       22    19  15    6.19   557.4    4.2      49.026
2014    9       22    19  20    6.19   557.4    4.2      49.012
2014    9       22    19  26    6.19   557.4    4.2      48.997
2014    9       22    19  31    6.19   557.3    4.2      48.983
2014    9       22    19  37    6.19   557.3    4.2      48.968
2014    9       22    19  42    6.19   557.3    4.2      48.953
2014    9       22    19  47    6.19   557.2    4.2      48.938
2014    9       22    19  53    6.19   557.2    4.2      48.923
2014    9       22    19  58    6.19   557.2    4.2      48.907
2014    9       22    20   4    6.19   557.1    4.2      48.892
2014    9       22    20   9    6.18   557.1    4.2      48.877
2014    9       22    20  14    6.18   557.0    4.2      48.861
2014    9       22    20  20    6.18   557.0    4.2      48.846
2014    9       22    20  25    6.18   557.0    4.2      48.831
2014    9       22    20  31    6.18   556.9    4.2      48.815
2014    9       22    20  36    6.18   556.9    4.2      48.800
2014    9       22    20  41    6.18   556.9    4.2      48.785
2014    9       22    20  47    6.18   556.8    4.2      48.770
2014    9       22    20  52    6.18   556.8    4.2      48.755
2014    9       22    20  57    6.18   556.8    4.2      48.740
2014    9       22    21   3    6.18   556.7    4.2      48.725
2014    9       22    21   8    6.17   556.7    4.2      48.710
2014    9       22    21  14    6.17   556.7    4.2      48.696
2014    9       22    21  19    6.17   556.6    4.2      48.681
2014    9       22    21  24    6.17   556.6    4.2      48.667
2014    9       22    21  30    6.17   556.6    4.2      48.653
2014    9       22    21  35    6.17   556.5    4.2      48.639
2014    9       22    21  41    6.17   556.5    4.2      48.626
2014    9       22    21  46    6.17   556.4    4.2      48.612
2014    9       22    21  51    6.17   556.4    4.2      48.599
2014    9       22    21  57    6.17   556.4    4.2      48.586
2014    9       22    22   2    6.17   556.3    4.2      48.573
2014    9       22    22   7    6.16   556.3    4.2      48.560
2014    9       22    22  13    6.16   556.3    4.2      48.547
2014    9       22    22  18    6.16   556.2    4.2      48.534
2014    9       22    22  24    6.16   556.2    4.2      48.522
2014    9       22    22  29    6.16   556.2    4.2      48.509
2014    9       22    22  34    6.16   556.1    4.2      48.497
2014    9       22    22  40    6.16   556.1    4.2      48.485
2014    9       22    22  45    6.16   556.1    4.2      48.473
2014    9       22    22  51    6.16   556.0    4.2      48.461
2014    9       22    22  56    6.16   556.0    4.2      48.449
2014    9       22    23   1    6.16   555.9    4.2      48.437
2014    9       22    23   7    6.15   555.9    4.2      48.425
2014    9       22    23  12    6.15   555.9    4.2      48.414
2014    9       22    23  18    6.15   555.8    4.2      48.403
2014    9       22    23  23    6.15   555.8    4.2      48.391
2014    9       22    23  28    6.15   555.7    4.2      48.380
2014    9       22    23  34    6.15   555.7    4.2      48.369
2014    9       22    23  39    6.15   555.7    4.2      48.359
2014    9       22    23  44    6.15   555.6    4.2      48.348
2014    9       22    23  50    6.15   555.6    4.2      48.338
2014    9       22    23  55    6.15   555.5    4.2      48.328
2014    9       23     0   1    6.15   555.5    4.2      48.318
2014    9       23     0   6    6.14   555.4    4.2      48.309
2014    9       23     0  11    6.14   555.4    4.2      48.300
2014    9       23     0  17    6.14   555.4    4.2      48.291
2014    9       23     0  22    6.14   555.3    4.2      48.283
2014    9       23     0  28    6.14   555.3    4.2      48.275
2014    9       23     0  33    6.14   555.2    4.2      48.268
2014    9       23     0  38    6.14   555.2    4.2      48.261
2014    9       23     0  44    6.14   555.1    4.2      48.254
2014    9       23     0  49    6.14   555.1    4.2      48.248
2014    9       23     0  54    6.14   555.1    4.2      48.242
2014    9       23     1   0    6.14   555.0    4.2      48.237
2014    9       23     1   5    6.14   555.0    4.2      48.232
2014    9       23     1  11    6.14   554.9    4.2      48.228
2014    9       23     1  16    6.14   554.9    4.2      48.224
2014    9       23     1  21    6.14   554.9    4.2      48.221
2014    9       23     1  27    6.14   554.8    4.2      48.217
2014    9       23     1  32    6.13   554.8    4.2      48.214
2014    9       23     1  38    6.13   554.7    4.2      48.211
2014    9       23     1  43    6.13   554.7    4.2      48.208
2014    9       23     1  48    6.13   554.7    4.2      48.205
2014    9       23     1  54    6.13   554.6    4.2      48.202
2014    9       23     1  59    6.13   554.6    4.2      48.199
2014    9       23     2   4    6.13   554.6    4.2      48.197
2014    9       23     2  10    6.13   554.5    4.2      48.194
2014    9       23     2  15    6.13   554.5    4.2      48.192
2014    9       23     2  21    6.13   554.4    4.2      48.189
2014    9       23     2  26    6.13   554.4    4.2      48.187
2014    9       23     2  31    6.13   554.4    4.2      48.184
2014    9       23     2  37    6.13   554.3    4.2      48.181
2014    9       23     2  42    6.13   554.3    4.2      48.178
2014    9       23     2  48    6.13   554.3    4.2      48.175
2014    9       23     2  53    6.13   554.2    4.2      48.172
2014    9       23     2  58    6.12   554.2    4.2      48.169
2014    9       23     3   4    6.12   554.2    4.2      48.165
2014    9       23     3   9    6.12   554.1    4.2      48.161
2014    9       23     3  15    6.12   554.1    4.2      48.157
2014    9       23     3  20    6.12   554.0    4.2      48.153
2014    9       23     3  25    6.12   554.0    4.2      48.148
2014    9       23     3  31    6.12   554.0    4.2      48.143
2014    9       23     3  36    6.12   553.9    4.2      48.138
2014    9       23     3  41    6.12   553.9    4.2      48.133
2014    9       23     3  47    6.12   553.9    4.2      48.127
2014    9       23     3  52    6.12   553.8    4.2      48.121
2014    9       23     3  58    6.12   553.8    4.2      48.115
2014    9       23     4   3    6.12   553.7    4.2      48.109
2014    9       23     4   8    6.12   553.7    4.2      48.102
2014    9       23     4  14    6.11   553.7    4.2      48.096
2014    9       23     4  19    6.11   553.6    4.2      48.089
2014    9       23     4  25    6.11   553.6    4.2      48.081
2014    9       23     4  30    6.11   553.6    4.2      48.074
2014    9       23     4  35    6.11   553.5    4.2      48.066
2014    9       23     4  41    6.11   553.5    4.2      48.058
2014    9       23     4  46    6.11   553.5    4.2      48.049
2014    9       23     4  52    6.11   553.4    4.2      48.040
2014    9       23     4  57    6.11   553.4    4.2      48.031
2014    9       23     5   2    6.11   553.3    4.2      48.020
2014    9       23     5   8    6.11   553.3    4.2      48.010
2014    9       23     5  13    6.11   553.3    4.2      47.999
2014    9       23     5  18    6.11   553.2    4.2      47.988
2014    9       23     5  24    6.11   553.2    4.2      47.976
2014    9       23     5  29    6.11   553.2    4.2      47.964
2014    9       23     5  35    6.11   553.1    4.2      47.952
2014    9       23     5  40    6.11   553.1    4.2      47.940
2014    9       23     5  45    6.10   553.0    4.2      47.927
2014    9       23     5  51    6.10   553.0    4.2      47.913
2014    9       23     5  56    6.10   553.0    4.2      47.900
2014    9       23     6   2    6.10   552.9    4.2      47.886
2014    9       23     6   7    6.10   552.9    4.2      47.873
2014    9       23     6  12    6.10   552.9    4.2      47.859
2014    9       23     6  18    6.10   552.8    4.2      47.845
2014    9       23     6  23    6.10   552.8    4.2      47.831
2014    9       23     6  29    6.10   552.7    4.2      47.818
2014    9       23     6  34    6.10   552.7    4.2      47.804
2014    9       23     6  39    6.10   552.7    4.2      47.790
2014    9       23     6  45    6.10   552.6    4.2      47.777
2014    9       23     6  50    6.10   552.6    4.2      47.764
2014    9       23     6  55    6.10   552.5    4.2      47.752
2014    9       23     7   1    6.10   552.5    4.2      47.740
2014    9       23     7   6    6.10   552.4    4.2      47.728
2014    9       23     7  12    6.10   552.4    4.2      47.717
2014    9       23     7  17    6.10   552.4    4.2      47.707
2014    9       23     7  22    6.10   552.3    4.2      47.697
2014    9       23     7  28    6.10   552.3    4.2      47.688
2014    9       23     7  33    6.10   552.2    4.2      47.680
2014    9       23     7  39    6.10   552.2    4.2      47.673
2014    9       23     7  44    6.10   552.2    4.2      47.667
2014    9       23     7  49    6.10   552.1    4.2      47.663
2014    9       23     7  55    6.09   552.1    4.2      47.659
2014    9       23     8   0    6.09   552.1    4.2      47.656
2014    9       23     8   5    6.09   552.0    4.2      47.654
2014    9       23     8  11    6.09   552.0    4.2      47.654
2014    9       23     8  16    6.09   552.0    4.2      47.655
2014    9       23     8  22    6.09   551.9    4.2      47.657
2014    9       23     8  27    6.09   551.9    4.2      47.660
2014    9       23     8  32    6.09   551.9    4.2      47.663
2014    9       23     8  38    6.09   551.9    4.2      47.667
2014    9       23     8  43    6.09   551.8    4.2      47.671
2014    9       23     8  49    6.09   551.8    4.2      47.674
2014    9       23     8  54    6.09   551.8    4.2      47.677
2014    9       23     8  59    6.09   551.8    4.2      47.680
2014    9       23     9   5    6.09   551.7    4.2      47.683
2014    9       23     9  10    6.09   551.7    4.2      47.685
2014    9       23     9  15    6.09   551.7    4.2      47.688
2014    9       23     9  21    6.09   551.7    4.2      47.690
2014    9       23     9  26    6.09   551.6    4.2      47.691
2014    9       23     9  32    6.09   551.6    4.2      47.693
2014    9       23     9  37    6.09   551.6    4.2      47.694
2014    9       23     9  42    6.09   551.6    4.2      47.695
2014    9       23     9  48    6.09   551.5    4.2      47.695
2014    9       23     9  53    6.09   551.5    4.2      47.696
2014    9       23     9  59    6.09   551.5    4.2      47.696
2014    9       23    10   4    6.09   551.5    4.2      47.696
2014    9       23    10   9    6.09   551.4    4.2      47.695
2014    9       23    10  15    6.09   551.4    4.2      47.695
2014    9       23    10  20    6.09   551.4    4.2      47.694
2014    9       23    10  26    6.09   551.3    4.2      47.692
2014    9       23    10  31    6.09   551.3    4.2      47.691
2014    9       23    10  36    6.09   551.3    4.2      47.689
2014    9       23    10  42    6.09   551.3    4.2      47.687
2014    9       23    10  47    6.09   551.2    4.2      47.684
2014    9       23    10  52    6.09   551.2    4.2      47.681
2014    9       23    10  58    6.09   551.2    4.2      47.678
2014    9       23    11   3    6.09   551.1    4.2      47.675
2014    9       23    11   9    6.09   551.1    4.2      47.672
2014    9       23    11  14    6.09   551.1    4.2      47.669
2014    9       23    11  19    6.09   551.0    4.2      47.665
2014    9       23    11  25    6.09   551.0    4.2      47.661
2014    9       23    11  30    6.09   551.0    4.2      47.657
2014    9       23    11  36    6.09   550.9    4.2      47.654
2014    9       23    11  41    6.09   550.9    4.2      47.650
2014    9       23    11  46    6.08   550.9    4.2      47.645
2014    9       23    11  52    6.08   550.8    4.2      47.641
2014    9       23    11  57    6.08   550.8    4.2      47.637
2014    9       23    12   3    6.08   550.8    4.2      47.633
2014    9       23    12   8    6.08   550.7    4.2      47.628
2014    9       23    12  13    6.08   550.7    4.2      47.623
2014    9       23    12  19    6.08   550.7    4.2      47.618
2014    9       23    12  24    6.08   550.6    4.2      47.612
2014    9       23    12  29    6.08   550.6    4.2      47.607
2014    9       23    12  35    6.08   550.6    4.2      47.601
2014    9       23    12  40    6.08   550.5    4.2      47.595
2014    9       23    12  46    6.08   550.5    4.2      47.589
2014    9       23    12  51    6.08   550.5    4.2      47.583
2014    9       23    12  56    6.08   550.4    4.2      47.576
2014    9       23    13   2    6.08   550.4    4.2      47.569
2014    9       23    13   7    6.08   550.4    4.2      47.562
2014    9       23    13  13    6.08   550.3    4.2      47.554
2014    9       23    13  18    6.08   550.3    4.2      47.546
2014    9       23    13  23    6.08   550.3    4.2      47.538
2014    9       23    13  29    6.08   550.2    4.2      47.530
2014    9       23    13  34    6.08   550.2    4.2      47.522
2014    9       23    13  40    6.08   550.1    4.2      47.514
2014    9       23    13  45    6.08   550.1    4.2      47.507
2014    9       23    13  50    6.08   550.1    4.2      47.499
2014    9       23    13  56    6.08   550.0    4.2      47.492
2014    9       23    14   1    6.08   550.0    4.2      47.484
2014    9       23    14   6    6.08   549.9    4.2      47.478
2014    9       23    14  12    6.08   549.9    4.2      47.472
2014    9       23    14  17    6.08   549.9    4.2      47.467
2014    9       23    14  23    6.08   549.8    4.2      47.462
2014    9       23    14  28    6.08   549.8    4.2      47.459
2014    9       23    14  33    6.09   549.7    4.2      47.456
2014    9       23    14  39    6.09   549.7    4.2      47.455
2014    9       23    14  44    6.09   549.6    4.2      47.455
2014    9       23    14  50    6.09   549.6    4.2      47.456
2014    9       23    14  55    6.09   549.6    4.2      47.459
2014    9       23    15   0    6.09   549.5    4.2      47.464
2014    9       23    15   6    6.09   549.5    4.2      47.470
2014    9       23    15  11    6.09   549.5    4.2      47.478
2014    9       23    15  16    6.09   549.4    4.2      47.487
2014    9       23    15  22    6.09   549.4    4.2      47.498
2014    9       23    15  27    6.09   549.4    4.3      47.510
2014    9       23    15  33    6.09   549.4    4.3      47.524
2014    9       23    15  38    6.09   549.4    4.3      47.539
2014    9       23    15  43    6.09   549.3    4.3      47.556
2014    9       23    15  49    6.09   549.3    4.3      47.572
2014    9       23    15  54    6.09   549.3    4.3      47.588
2014    9       23    16   0    6.09   549.3    4.3      47.604
2014    9       23    16   5    6.09   549.3    4.3      47.618
2014    9       23    16  10    6.09   549.3    4.3      47.631
2014    9       23    16  16    6.09   549.3    4.3      47.644
2014    9       23    16  21    6.09   549.3    4.3      47.655
2014    9       23    16  26    6.09   549.3    4.3      47.665
2014    9       23    16  32    6.09   549.2    4.3      47.674
2014    9       23    16  37    6.09   549.2    4.3      47.682
2014    9       23    16  43    6.09   549.2    4.3      47.689
2014    9       23    16  48    6.09   549.2    4.3      47.696
2014    9       23    16  53    6.09   549.2    4.3      47.701
2014    9       23    16  59    6.09   549.2    4.3      47.706
2014    9       23    17   4    6.10   549.2    4.3      47.710
2014    9       23    17  10    6.10   549.2    4.3      47.714
2014    9       23    17  15    6.10   549.1    4.3      47.717
2014    9       23    17  20    6.10   549.1    4.3      47.719
2014    9       23    17  26    6.10   549.1    4.3      47.721
2014    9       23    17  31    6.10   549.1    4.3      47.722
2014    9       23    17  37    6.10   549.1    4.3      47.723
2014    9       23    17  42    6.10   549.1    4.3      47.723
2014    9       23    17  47    6.10   549.1    4.3      47.723
2014    9       23    17  53    6.10   549.0    4.3      47.722
2014    9       23    17  58    6.10   549.0    4.3      47.722
2014    9       23    18   3    6.10   549.0    4.3      47.721
2014    9       23    18   9    6.10   549.0    4.3      47.719
2014    9       23    18  14    6.10   549.0    4.3      47.717
2014    9       23    18  20    6.10   549.0    4.3      47.715
2014    9       23    18  25    6.10   548.9    4.3      47.713
2014    9       23    18  30    6.10   548.9    4.3      47.711
2014    9       23    18  36    6.10   548.9    4.3      47.708
2014    9       23    18  41    6.10   548.9    4.3      47.705
2014    9       23    18  47    6.10   548.9    4.3      47.702
2014    9       23    18  52    6.10   548.9    4.3      47.699
2014    9       23    18  57    6.10   548.8    4.3      47.696
2014    9       23    19   3    6.10   548.8    4.3      47.693
2014    9       23    19   8    6.10   548.8    4.3      47.690
2014    9       23    19  13    6.10   548.8    4.3      47.687
2014    9       23    19  19    6.10   548.8    4.3      47.684
2014    9       23    19  24    6.11   548.7    4.3      47.681
2014    9       23    19  30    6.11   548.7    4.3      47.678
2014    9       23    19  35    6.11   548.7    4.3      47.676
2014    9       23    19  40    6.11   548.7    4.3      47.673
2014    9       23    19  46    6.11   548.7    4.3      47.671
2014    9       23    19  51    6.11   548.6    4.3      47.669
2014    9       23    19  57    6.11   548.6    4.3      47.668
2014    9       23    20   2    6.11   548.6    4.3      47.666
2014    9       23    20   7    6.11   548.6    4.3      47.665
2014    9       23    20  13    6.11   548.6    4.3      47.665
2014    9       23    20  18    6.11   548.5    4.3      47.664
2014    9       23    20  23    6.11   548.5    4.3      47.664
2014    9       23    20  29    6.11   548.5    4.3      47.664
2014    9       23    20  34    6.11   548.5    4.3      47.665
2014    9       23    20  40    6.11   548.5    4.3      47.665
2014    9       23    20  45    6.12   548.4    4.3      47.665
2014    9       23    20  50    6.12   548.4    4.3      47.665
2014    9       23    20  56    6.12   548.4    4.3      47.666
2014    9       23    21   1    6.12   548.4    4.3      47.666
2014    9       23    21   7    6.12   548.4    4.3      47.667
2014    9       23    21  12    6.12   548.3    4.3      47.668
2014    9       23    21  17    6.12   548.3    4.3      47.670
2014    9       23    21  23    6.12   548.3    4.3      47.672
2014    9       23    21  28    6.12   548.3    4.3      47.676
2014    9       23    21  33    6.12   548.2    4.3      47.680
2014    9       23    21  39    6.12   548.2    4.3      47.684
2014    9       23    21  44    6.12   548.2    4.3      47.690
2014    9       23    21  50    6.12   548.2    4.3      47.697
2014    9       23    21  55    6.12   548.2    4.3      47.704
2014    9       23    22   0    6.13   548.1    4.3      47.713
2014    9       23    22   6    6.13   548.1    4.3      47.724
2014    9       23    22  11    6.13   548.1    4.3      47.735
2014    9       23    22  17    6.13   548.1    4.3      47.748
2014    9       23    22  22    6.13   548.1    4.3      47.761
2014    9       23    22  27    6.13   548.1    4.3      47.776
2014    9       23    22  33    6.13   548.0    4.3      47.791
2014    9       23    22  38    6.13   548.0    4.3      47.806
2014    9       23    22  43    6.13   548.0    4.3      47.821
2014    9       23    22  49    6.13   548.0    4.3      47.837
2014    9       23    22  54    6.14   548.0    4.3      47.852
2014    9       23    23   0    6.14   548.0    4.3      47.869
2014    9       23    23   5    6.14   548.0    4.3      47.885
2014    9       23    23  10    6.14   548.0    4.3      47.901
2014    9       23    23  16    6.14   548.0    4.3      47.917
2014    9       23    23  21    6.14   548.0    4.3      47.932
2014    9       23    23  27    6.14   548.0    4.3      47.947
2014    9       23    23  32    6.14   548.0    4.3      47.961
2014    9       23    23  37    6.14   548.0    4.3      47.973
2014    9       23    23  43    6.14   548.0    4.3      47.985
2014    9       23    23  48    6.15   548.0    4.3      47.996
2014    9       23    23  53    6.15   547.9    4.3      48.006
2014    9       23    23  59    6.15   547.9    4.3      48.016
2014    9       24     0   4    6.15   547.9    4.3      48.025
2014    9       24     0  10    6.15   547.9    4.3      48.033
2014    9       24     0  15    6.15   547.9    4.3      48.040
2014    9       24     0  20    6.15   547.9    4.3      48.047
2014    9       24     0  26    6.15   547.9    4.3      48.054
2014    9       24     0  31    6.15   547.9    4.3      48.060
2014    9       24     0  36    6.15   547.9    4.3      48.066
2014    9       24     0  42    6.16   547.9    4.3      48.071
2014    9       24     0  47    6.16   547.9    4.3      48.076
2014    9       24     0  52    6.16   547.9    4.3      48.080
2014    9       24     0  58    6.16   547.9    4.3      48.084
2014    9       24     1   3    6.16   547.9    4.3      48.088
2014    9       24     1   9    6.16   547.9    4.3      48.092
2014    9       24     1  14    6.16   547.9    4.3      48.096
2014    9       24     1  19    6.16   547.9    4.3      48.100
2014    9       24     1  25    6.16   547.8    4.3      48.103
2014    9       24     1  30    6.16   547.8    4.3      48.107
2014    9       24     1  35    6.17   547.8    4.3      48.111
2014    9       24     1  41    6.17   547.8    4.3      48.115
2014    9       24     1  46    6.17   547.8    4.3      48.119
2014    9       24     1  51    6.17   547.8    4.3      48.124
2014    9       24     1  57    6.17   547.8    4.3      48.129
2014    9       24     2   2    6.17   547.8    4.3      48.134
2014    9       24     2   7    6.17   547.8    4.3      48.141
2014    9       24     2  13    6.17   547.8    4.3      48.148
2014    9       24     2  18    6.18   547.8    4.3      48.155
2014    9       24     2  23    6.18   547.8    4.3      48.164
2014    9       24     2  29    6.18   547.8    4.3      48.173
2014    9       24     2  34    6.18   547.8    4.3      48.183
2014    9       24     2  39    6.18   547.8    4.3      48.193
2014    9       24     2  45    6.18   547.8    4.3      48.204
2014    9       24     2  50    6.18   547.8    4.3      48.215
2014    9       24     2  56    6.19   547.8    4.3      48.227
2014    9       24     3   1    6.19   547.8    4.3      48.239
2014    9       24     3   6    6.19   547.8    4.3      48.251
2014    9       24     3  12    6.19   547.8    4.3      48.264
2014    9       24     3  17    6.19   547.9    4.3      48.278
2014    9       24     3  22    6.19   547.9    4.3      48.293
2014    9       24     3  28    6.20   547.9    4.3      48.309
2014    9       24     3  33    6.20   547.9    4.3      48.325
2014    9       24     3  38    6.20   547.9    4.3      48.343
2014    9       24     3  44    6.20   547.9    4.3      48.361
2014    9       24     3  49    6.20   548.0    4.3      48.380
2014    9       24     3  54    6.20   548.0    4.3      48.401
2014    9       24     4   0    6.20   548.0    4.3      48.422
2014    9       24     4   5    6.21   548.0    4.3      48.444
2014    9       24     4  10    6.21   548.1    4.3      48.467
2014    9       24     4  16    6.21   548.1    4.3      48.491
2014    9       24     4  21    6.21   548.1    4.3      48.515
2014    9       24     4  26    6.21   548.2    4.3      48.540
2014    9       24     4  32    6.21   548.2    4.3      48.564
2014    9       24     4  37    6.21   548.2    4.3      48.588
2014    9       24     4  42    6.22   548.3    4.3      48.612
2014    9       24     4  48    6.22   548.3    4.3      48.635
2014    9       24     4  53    6.22   548.3    4.3      48.659
2014    9       24     4  58    6.22   548.4    4.3      48.682
2014    9       24     5   4    6.22   548.4    4.4      48.706
2014    9       24     5   9    6.22   548.4    4.4      48.730
2014    9       24     5  14    6.23   548.5    4.4      48.754
2014    9       24     5  20    6.23   548.5    4.4      48.778
2014    9       24     5  25    6.23   548.6    4.4      48.802
2014    9       24     5  30    6.23   548.6    4.4      48.827
2014    9       24     5  36    6.23   548.6    4.4      48.850
2014    9       24     5  41    6.23   548.7    4.4      48.873
2014    9       24     5  46    6.23   548.7    4.4      48.896
2014    9       24     5  52    6.24   548.7    4.4      48.918
2014    9       24     5  57    6.24   548.8    4.4      48.939
2014    9       24     6   2    6.24   548.8    4.4      48.960
2014    9       24     6   8    6.24   548.9    4.4      48.980
2014    9       24     6  13    6.24   548.9    4.4      49.000
2014    9       24     6  18    6.24   548.9    4.4      49.020
2014    9       24     6  24    6.24   549.0    4.4      49.039
2014    9       24     6  29    6.25   549.0    4.4      49.058
2014    9       24     6  34    6.25   549.0    4.4      49.076
2014    9       24     6  40    6.25   549.1    4.4      49.094
2014    9       24     6  45    6.25   549.1    4.4      49.113
2014    9       24     6  50    6.25   549.2    4.4      49.131
2014    9       24     6  56    6.25   549.2    4.4      49.148
2014    9       24     7   1    6.26   549.2    4.4      49.166
2014    9       24     7   6    6.26   549.3    4.4      49.184
2014    9       24     7  12    6.26   549.3    4.4      49.202
2014    9       24     7  17    6.26   549.3    4.4      49.221
2014    9       24     7  22    6.26   549.4    4.4      49.239
2014    9       24     7  28    6.26   549.4    4.4      49.258
2014    9       24     7  33    6.27   549.5    4.4      49.278
2014    9       24     7  38    6.27   549.5    4.4      49.298
2014    9       24     7  44    6.27   549.6    4.4      49.319
2014    9       24     7  49    6.27   549.6    4.4      49.341
2014    9       24     7  54    6.27   549.6    4.4      49.364
2014    9       24     8   0    6.27   549.7    4.4      49.388
2014    9       24     8   5    6.28   549.7    4.4      49.412
2014    9       24     8  10    6.28   549.8    4.4      49.437
2014    9       24     8  16    6.28   549.8    4.4      49.462
2014    9       24     8  21    6.28   549.9    4.4      49.487
2014    9       24     8  26    6.28   549.9    4.4      49.512
2014    9       24     8  32    6.28   549.9    4.4      49.537
2014    9       24     8  37    6.28   550.0    4.4      49.561
2014    9       24     8  43    6.29   550.0    4.4      49.585
2014    9       24     8  48    6.29   550.1    4.4      49.609
2014    9       24     8  53    6.29   550.1    4.4      49.633
2014    9       24     8  59    6.29   550.2    4.4      49.657
2014    9       24     9   4    6.29   550.2    4.4      49.681
2014    9       24     9   9    6.29   550.3    4.4      49.705
2014    9       24     9  15    6.30   550.3    4.4      49.729
2014    9       24     9  20    6.30   550.4    4.4      49.754
2014    9       24     9  25    6.30   550.4    4.4      49.779
2014    9       24     9  31    6.30   550.5    4.4      49.804
2014    9       24     9  36    6.30   550.5    4.4      49.830
2014    9       24     9  41    6.30   550.6    4.4      49.856
2014    9       24     9  47    6.31   550.6    4.4      49.882
2014    9       24     9  52    6.31   550.7    4.4      49.908
2014    9       24     9  58    6.31   550.7    4.4      49.934
2014    9       24    10   3    6.31   550.8    4.4      49.960
2014    9       24    10   8    6.31   550.8    4.4      49.986
2014    9       24    10  14    6.32   550.9    4.4      50.012
2014    9       24    10  19    6.32   551.0    4.4      50.039
2014    9       24    10  24    6.32   551.0    4.4      50.065
2014    9       24    10  30    6.32   551.1    4.4      50.092
2014    9       24    10  35    6.32   551.1    4.4      50.120
2014    9       24    10  40    6.32   551.2    4.4      50.147
2014    9       24    10  46    6.33   551.3    4.4      50.176
2014    9       24    10  51    6.33   551.3    4.4      50.204
2014    9       24    10  56    6.33   551.4    4.4      50.233
2014    9       24    11   2    6.33   551.5    4.4      50.264
2014    9       24    11   7    6.33   551.6    4.4      50.295
2014    9       24    11  13    6.34   551.6    4.4      50.326
2014    9       24    11  18    6.34   551.7    4.4      50.359
2014    9       24    11  23    6.34   551.8    4.4      50.392
2014    9       24    11  29    6.34   551.9    4.4      50.425
2014    9       24    11  34    6.34   552.0    4.4      50.458
2014    9       24    11  39    6.34   552.1    4.4      50.491
2014    9       24    11  45    6.35   552.1    4.4      50.523
2014    9       24    11  50    6.35   552.2    4.4      50.555
2014    9       24    11  55    6.35   552.3    4.4      50.586
2014    9       24    12   1    6.35   552.4    4.4      50.617
2014    9       24    12   6    6.35   552.5    4.4      50.649
2014    9       24    12  12    6.35   552.6    4.4      50.680
2014    9       24    12  17    6.36   552.6    4.4      50.710
2014    9       24    12  22    6.36   552.7    4.4      50.741
2014    9       24    12  28    6.36   552.8    4.4      50.772
2014    9       24    12  33    6.36   552.9    4.4      50.803
2014    9       24    12  38    6.36   553.0    4.4      50.834
2014    9       24    12  44    6.36   553.1    4.4      50.866
2014    9       24    12  49    6.37   553.1    4.4      50.898
2014    9       24    12  54    6.37   553.2    4.4      50.930
2014    9       24    13   0    6.37   553.3    4.4      50.962
2014    9       24    13   5    6.37   553.4    4.4      50.995
2014    9       24    13  11    6.37   553.5    4.4      51.028
2014    9       24    13  16    6.38   553.6    4.4      51.062
2014    9       24    13  21    6.38   553.7    4.4      51.098
2014    9       24    13  27    6.38   553.8    4.4      51.134
2014    9       24    13  32    6.38   553.8    4.4      51.170
2014    9       24    13  37    6.38   553.9    4.4      51.208
2014    9       24    13  43    6.39   554.0    4.4      51.248
2014    9       24    13  48    6.39   554.1    4.4      51.291
2014    9       24    13  54    6.39   554.2    4.4      51.335
2014    9       24    13  59    6.39   554.3    4.4      51.381
2014    9       24    14   4    6.40   554.4    4.4      51.429
2014    9       24    14  10    6.40   554.6    4.4      51.479
2014    9       24    14  15    6.40   554.7    4.4      51.531
2014    9       24    14  20    6.40   554.8    4.4      51.586
2014    9       24    14  26    6.40   554.9    4.4      51.642
2014    9       24    14  31    6.41   555.0    4.4      51.700
2014    9       24    14  37    6.41   555.2    4.4      51.760
2014    9       24    14  42    6.41   555.3    4.4      51.821
2014    9       24    14  47    6.41   555.4    4.4      51.882
2014    9       24    14  53    6.41   555.6    4.4      51.942
2014    9       24    14  58    6.41   555.7    4.4      52.001
2014    9       24    15   3    6.42   555.9    4.4      52.060
2014    9       24    15   9    6.42   556.0    4.5      52.118
2014    9       24    15  14    6.42   556.1    4.5      52.175
2014    9       24    15  20    6.42   556.3    4.5      52.230
2014    9       24    15  25    6.42   556.4    4.5      52.283
2014    9       24    15  30    6.42   556.5    4.5      52.335
2014    9       24    15  36    6.43   556.7    4.5      52.385
2014    9       24    15  41    6.43   556.8    4.5      52.433
2014    9       24    15  46    6.43   557.0    4.5      52.480
2014    9       24    15  52    6.43   557.1    4.4      52.526
2014    9       24    15  57    6.43   557.2    4.4      52.570
2014    9       24    16   3    6.43   557.4    4.4      52.612
2014    9       24    16   8    6.43   557.5    4.4      52.653
2014    9       24    16  13    6.44   557.6    4.4      52.693
2014    9       24    16  19    6.44   557.8    4.4      52.732
2014    9       24    16  24    6.44   557.9    4.4      52.769
2014    9       24    16  29    6.44   558.1    4.4      52.805
2014    9       24    16  35    6.44   558.2    4.4      52.840
2014    9       24    16  40    6.44   558.3    4.4      52.874
2014    9       24    16  45    6.44   558.5    4.4      52.907
2014    9       24    16  51    6.44   558.6    4.4      52.938
2014    9       24    16  56    6.45   558.7    4.4      52.969
2014    9       24    17   2    6.45   558.9    4.4      53.000
2014    9       24    17   7    6.45   559.0    4.4      53.029
2014    9       24    17  12    6.45   559.2    4.4      53.058
2014    9       24    17  18    6.45   559.3    4.4      53.086
2014    9       24    17  23    6.45   559.4    4.4      53.113
2014    9       24    17  28    6.45   559.6    4.4      53.139
2014    9       24    17  34    6.45   559.7    4.4      53.166
2014    9       24    17  39    6.46   559.8    4.4      53.191
2014    9       24    17  45    6.46   560.0    4.4      53.216
2014    9       24    17  50    6.46   560.1    4.4      53.241
2014    9       24    17  55    6.46   560.2    4.4      53.265
2014    9       24    18   1    6.46   560.4    4.4      53.289
2014    9       24    18   6    6.46   560.5    4.4      53.312
2014    9       24    18  11    6.46   560.6    4.4      53.335
2014    9       24    18  17    6.46   560.8    4.4      53.358
2014    9       24    18  22    6.47   560.9    4.4      53.382
2014    9       24    18  28    6.47   561.0    4.4      53.404
2014    9       24    18  33    6.47   561.2    4.4      53.427
2014    9       24    18  38    6.47   561.3    4.4      53.450
2014    9       24    18  44    6.47   561.4    4.4      53.473
2014    9       24    18  49    6.47   561.5    4.4      53.496
2014    9       24    18  54    6.47   561.7    4.4      53.519
2014    9       24    19   0    6.47   561.8    4.4      53.542
2014    9       24    19   5    6.48   561.9    4.4      53.566
2014    9       24    19  11    6.48   562.1    4.4      53.591
2014    9       24    19  16    6.48   562.2    4.4      53.616
2014    9       24    19  21    6.48   562.3    4.4      53.642
2014    9       24    19  27    6.48   562.5    4.4      53.669
2014    9       24    19  32    6.48   562.6    4.4      53.696
2014    9       24    19  38    6.48   562.8    4.4      53.726
2014    9       24    19  43    6.49   562.9    4.4      53.756
2014    9       24    19  48    6.49   563.0    4.4      53.787
2014    9       24    19  54    6.49   563.2    4.4      53.820
2014    9       24    19  59    6.49   563.3    4.4      53.855
2014    9       24    20   4    6.49   563.5    4.4      53.892
2014    9       24    20  10    6.50   563.6    4.4      53.931
2014    9       24    20  15    6.50   563.8    4.4      53.971
2014    9       24    20  21    6.50   563.9    4.4      54.014
2014    9       24    20  26    6.50   564.1    4.4      54.059
2014    9       24    20  31    6.50   564.2    4.4      54.107
2014    9       24    20  37    6.51   564.4    4.4      54.157
2014    9       24    20  42    6.51   564.6    4.4      54.209
2014    9       24    20  47    6.51   564.7    4.4      54.264
2014    9       24    20  53    6.51   564.9    4.4      54.323
2014    9       24    20  58    6.51   565.1    4.4      54.386
2014    9       24    21   4    6.52   565.3    4.4      54.453
2014    9       24    21   9    6.52   565.5    4.4      54.523
2014    9       24    21  14    6.52   565.7    4.4      54.598
2014    9       24    21  20    6.52   565.9    4.4      54.679
2014    9       24    21  25    6.52   566.1    4.4      54.763
2014    9       24    21  30    6.52   566.3    4.4      54.847
2014    9       24    21  36    6.53   566.6    4.4      54.931
2014    9       24    21  41    6.53   566.8    4.4      55.016
2014    9       24    21  47    6.53   567.0    4.4      55.100
2014    9       24    21  52    6.53   567.3    4.4      55.181
2014    9       24    21  57    6.53   567.5    4.4      55.261
2014    9       24    22   3    6.53   567.7    4.4      55.337
2014    9       24    22   8    6.53   568.0    4.4      55.411
2014    9       24    22  14    6.53   568.2    4.4      55.484
2014    9       24    22  19    6.54   568.5    4.4      55.554
2014    9       24    22  24    6.54   568.7    4.4      55.622
2014    9       24    22  30    6.54   568.9    4.4      55.688
2014    9       24    22  35    6.54   569.2    4.4      55.752
2014    9       24    22  40    6.54   569.4    4.4      55.815
2014    9       24    22  46    6.54   569.7    4.4      55.875
2014    9       24    22  51    6.54   569.9    4.4      55.934
2014    9       24    22  57    6.54   570.2    4.4      55.990
2014    9       24    23   2    6.54   570.4    4.4      56.046
2014    9       24    23   7    6.54   570.6    4.4      56.099
2014    9       24    23  13    6.54   570.9    4.4      56.151
2014    9       24    23  18    6.54   571.1    4.4      56.200
2014    9       24    23  23    6.54   571.4    4.4      56.249
2014    9       24    23  29    6.54   571.6    4.4      56.296
2014    9       24    23  34    6.54   571.9    4.4      56.341
2014    9       24    23  40    6.54   572.1    4.4      56.385
2014    9       24    23  45    6.54   572.3    4.4      56.428
2014    9       24    23  50    6.55   572.6    4.4      56.469
2014    9       24    23  56    6.55   572.8    4.3      56.509
2014    9       25     0   1    6.55   573.1    4.3      56.548
2014    9       25     0   7    6.55   573.3    4.3      56.586
2014    9       25     0  12    6.55   573.5    4.3      56.623
2014    9       25     0  17    6.55   573.8    4.3      56.658
2014    9       25     0  23    6.55   574.0    4.3      56.693
2014    9       25     0  28    6.55   574.2    4.3      56.727
2014    9       25     0  33    6.55   574.5    4.3      56.760
2014    9       25     0  39    6.55   574.7    4.3      56.792
2014    9       25     0  44    6.55   574.9    4.3      56.823
2014    9       25     0  50    6.55   575.2    4.3      56.854
2014    9       25     0  55    6.55   575.4    4.3      56.884
2014    9       25     1   0    6.55   575.6    4.3      56.913
2014    9       25     1   6    6.55   575.8    4.3      56.941
2014    9       25     1  11    6.55   576.1    4.3      56.969
2014    9       25     1  16    6.55   576.3    4.3      56.997
2014    9       25     1  22    6.55   576.5    4.3      57.023
2014    9       25     1  27    6.55   576.7    4.3      57.049
2014    9       25     1  33    6.55   577.0    4.3      57.075
2014    9       25     1  38    6.55   577.2    4.3      57.100
2014    9       25     1  43    6.55   577.4    4.2      57.125
2014    9       25     1  49    6.55   577.6    4.2      57.149
2014    9       25     1  54    6.55   577.9    4.2      57.172
2014    9       25     2   0    6.55   578.1    4.2      57.196
2014    9       25     2   5    6.55   578.3    4.2      57.219
2014    9       25     2  10    6.55   578.5    4.2      57.242
2014    9       25     2  16    6.55   578.7    4.2      57.265
2014    9       25     2  21    6.55   578.9    4.2      57.288
2014    9       25     2  26    6.55   579.2    4.2      57.310
2014    9       25     2  32    6.55   579.4    4.2      57.334
2014    9       25     2  37    6.55   579.6    4.2      57.357
2014    9       25     2  43    6.55   579.8    4.2      57.381
2014    9       25     2  48    6.55   580.0    4.2      57.405
2014    9       25     2  53    6.55   580.3    4.2      57.431
2014    9       25     2  59    6.55   580.5    4.2      57.456
2014    9       25     3   4    6.55   580.7    4.2      57.483
2014    9       25     3  10    6.55   580.9    4.2      57.511
2014    9       25     3  15    6.55   581.1    4.2      57.541
2014    9       25     3  20    6.55   581.4    4.2      57.571
2014    9       25     3  26    6.55   581.6    4.2      57.603
2014    9       25     3  31    6.55   581.8    4.2      57.636
2014    9       25     3  36    6.55   582.0    4.2      57.670
2014    9       25     3  42    6.55   582.3    4.2      57.706
2014    9       25     3  47    6.55   582.5    4.2      57.744
2014    9       25     3  53    6.55   582.7    4.2      57.783
2014    9       25     3  58    6.55   583.0    4.2      57.822
2014    9       25     4   3    6.55   583.2    4.2      57.864
2014    9       25     4   9    6.55   583.5    4.2      57.910
2014    9       25     4  14    6.55   583.7    4.2      57.958
2014    9       25     4  20    6.55   584.0    4.2      58.009
2014    9       25     4  25    6.54   584.2    4.2      58.064
2014    9       25     4  30    6.54   584.5    4.2      58.121
2014    9       25     4  36    6.54   584.8    4.2      58.179
2014    9       25     4  41    6.54   585.0    4.2      58.237
2014    9       25     4  46    6.54   585.3    4.2      58.294
2014    9       25     4  52    6.54   585.6    4.2      58.349
2014    9       25     4  57    6.54   585.8    4.2      58.405
2014    9       25     5   3    6.54   586.1    4.1      58.460
2014    9       25     5   8    6.54   586.4    4.1      58.514
2014    9       25     5  13    6.54   586.6    4.1      58.568
2014    9       25     5  19    6.54   586.9    4.1      58.621
2014    9       25     5  24    6.53   587.2    4.1      58.674
2014    9       25     5  30    6.53   587.4    4.1      58.726
2014    9       25     5  35    6.53   587.7    4.1      58.778
2014    9       25     5  40    6.53   588.0    4.1      58.830
2014    9       25     5  46    6.53   588.3    4.1      58.881
2014    9       25     5  51    6.53   588.5    4.1      58.931
2014    9       25     5  56    6.53   588.8    4.1      58.981
2014    9       25     6   2    6.53   589.0    4.1      59.031
2014    9       25     6   7    6.52   589.3    4.1      59.079
2014    9       25     6  13    6.52   589.6    4.1      59.127
2014    9       25     6  18    6.52   589.8    4.1      59.174
2014    9       25     6  23    6.52   590.1    4.1      59.220
2014    9       25     6  29    6.52   590.4    4.1      59.266
2014    9       25     6  34    6.52   590.6    4.1      59.310
2014    9       25     6  40    6.51   590.9    4.1      59.352
2014    9       25     6  45    6.51   591.1    4.1      59.394
2014    9       25     6  50    6.51   591.4    4.1      59.434
2014    9       25     6  56    6.51   591.6    4.1      59.472
2014    9       25     7   1    6.51   591.9    4.0      59.510
2014    9       25     7   6    6.51   592.1    4.0      59.545
2014    9       25     7  12    6.50   592.4    4.0      59.580
2014    9       25     7  17    6.50   592.6    4.0      59.613
2014    9       25     7  23    6.50   592.8    4.0      59.645
2014    9       25     7  28    6.50   593.1    4.0      59.675
2014    9       25     7  33    6.50   593.3    4.0      59.704
2014    9       25     7  39    6.49   593.6    4.0      59.732
2014    9       25     7  44    6.49   593.8    4.0      59.758
2014    9       25     7  50    6.49   594.0    4.0      59.784
2014    9       25     7  55    6.49   594.3    4.0      59.807
2014    9       25     8   0    6.49   594.5    4.0      59.830
2014    9       25     8   6    6.48   594.7    4.0      59.851
2014    9       25     8  11    6.48   595.0    4.0      59.871
2014    9       25     8  16    6.48   595.2    4.0      59.889
2014    9       25     8  22    6.48   595.4    4.0      59.907
2014    9       25     8  27    6.47   595.6    4.0      59.923
2014    9       25     8  33    6.47   595.9    4.0      59.938
2014    9       25     8  38    6.47   596.1    3.9      59.951
2014    9       25     8  43    6.47   596.3    3.9      59.964
2014    9       25     8  49    6.46   596.5    3.9      59.975
2014    9       25     8  54    6.46   596.7    3.9      59.986
2014    9       25     9   0    6.46   597.0    3.9      59.995
2014    9       25     9   5    6.46   597.2    3.9      60.003
2014    9       25     9  10    6.45   597.4    3.9      60.010
2014    9       25     9  16    6.45   597.6    3.9      60.016
2014    9       25     9  21    6.45   597.8    3.9      60.021
2014    9       25     9  26    6.45   598.0    3.9      60.026
2014    9       25     9  32    6.44   598.2    3.9      60.029
2014    9       25     9  37    6.44   598.4    3.9      60.032
2014    9       25     9  43    6.44   598.6    3.9      60.034
2014    9       25     9  48    6.44   598.8    3.9      60.036
2014    9       25     9  53    6.43   599.0    3.9      60.036
2014    9       25     9  59    6.43   599.2    3.9      60.037
2014    9       25    10   4    6.43   599.4    3.9      60.037
2014    9       25    10  10    6.42   599.6    3.9      60.037
2014    9       25    10  15    6.42   599.8    3.8      60.036
2014    9       25    10  20    6.42   600.0    3.8      60.035
2014    9       25    10  26    6.42   600.2    3.8      60.033
2014    9       25    10  31    6.41   600.4    3.8      60.031
2014    9       25    10  36    6.41   600.6    3.8      60.029
2014    9       25    10  42    6.41   600.8    3.8      60.026
2014    9       25    10  47    6.40   600.9    3.8      60.023
2014    9       25    10  53    6.40   601.1    3.8      60.019
2014    9       25    10  58    6.40   601.3    3.8      60.016
2014    9       25    11   3    6.39   601.5    3.8      60.013
2014    9       25    11   9    6.39   601.7    3.8      60.010
2014    9       25    11  14    6.39   601.8    3.8      60.007
2014    9       25    11  20    6.39   602.0    3.8      60.004
2014    9       25    11  25    6.38   602.2    3.8      60.002
2014    9       25    11  30    6.38   602.3    3.8      59.999
2014    9       25    11  36    6.38   602.5    3.8      59.998
2014    9       25    11  41    6.37   602.7    3.8      59.998
2014    9       25    11  46    6.37   602.8    3.8      59.998
2014    9       25    11  52    6.37   603.0    3.8      59.999
2014    9       25    11  57    6.36   603.1    3.7      60.001
2014    9       25    12   3    6.36   603.3    3.7      60.004
2014    9       25    12   8    6.36   603.4    3.7      60.009
2014    9       25    12  13    6.35   603.6    3.7      60.015
2014    9       25    12  19    6.35   603.7    3.7      60.022
2014    9       25    12  24    6.35   603.9    3.7      60.032
2014    9       25    12  30    6.34   604.0    3.7      60.043
2014    9       25    12  35    6.34   604.1    3.7      60.056
2014    9       25    12  40    6.34   604.3    3.7      60.071
2014    9       25    12  46    6.33   604.4    3.7      60.087
2014    9       25    12  51    6.33   604.5    3.7      60.106
2014    9       25    12  57    6.33   604.7    3.7      60.128
2014    9       25    13   2    6.33   604.8    3.7      60.152
2014    9       25    13   7    6.32   604.9    3.7      60.178
2014    9       25    13  13    6.32   605.1    3.7      60.205
2014    9       25    13  18    6.32   605.2    3.7      60.234
2014    9       25    13  23    6.31   605.3    3.7      60.264
2014    9       25    13  29    6.31   605.5    3.7      60.296
2014    9       25    13  34    6.31   605.6    3.7      60.329
2014    9       25    13  40    6.31   605.7    3.7      60.361
2014    9       25    13  45    6.30   605.9    3.7      60.394
2014    9       25    13  50    6.30   606.0    3.7      60.427
2014    9       25    13  56    6.30   606.1    3.7      60.458
2014    9       25    14   1    6.29   606.3    3.7      60.486
2014    9       25    14   7    6.29   606.4    3.7      60.511
2014    9       25    14  12    6.29   606.5    3.7      60.535
2014    9       25    14  17    6.28   606.7    3.7      60.556
2014    9       25    14  23    6.28   606.8    3.7      60.576
2014    9       25    14  28    6.28   606.9    3.7      60.594
2014    9       25    14  33    6.28   607.0    3.7      60.609
2014    9       25    14  39    6.27   607.2    3.7      60.623
2014    9       25    14  44    6.27   607.3    3.7      60.635
2014    9       25    14  50    6.27   607.4    3.6      60.645
2014    9       25    14  55    6.26   607.5    3.6      60.653
2014    9       25    15   0    6.26   607.7    3.6      60.660
2014    9       25    15   6    6.26   607.8    3.6      60.664
2014    9       25    15  11    6.25   607.9    3.6      60.667
2014    9       25    15  17    6.25   608.0    3.6      60.669
2014    9       25    15  22    6.25   608.1    3.6      60.669
2014    9       25    15  27    6.24   608.3    3.6      60.666
2014    9       25    15  33    6.24   608.4    3.6      60.663
2014    9       25    15  38    6.24   608.5    3.6      60.658
2014    9       25    15  44    6.23   608.6    3.6      60.651
2014    9       25    15  49    6.23   608.7    3.6      60.643
2014    9       25    15  54    6.22   608.8    3.6      60.633
2014    9       25    16   0    6.22   608.9    3.6      60.622
2014    9       25    16   5    6.22   609.0    3.6      60.609
2014    9       25    16  10    6.21   609.1    3.6      60.595
2014    9       25    16  16    6.21   609.3    3.6      60.579
2014    9       25    16  21    6.21   609.4    3.6      60.563
2014    9       25    16  27    6.20   609.4    3.6      60.544
2014    9       25    16  32    6.20   609.5    3.6      60.525
2014    9       25    16  37    6.20   609.6    3.6      60.505
2014    9       25    16  43    6.19   609.7    3.6      60.484
2014    9       25    16  48    6.19   609.8    3.6      60.461
2014    9       25    16  54    6.18   609.9    3.6      60.438
2014    9       25    16  59    6.18   610.0    3.6      60.413
2014    9       25    17   4    6.18   610.1    3.5      60.389
2014    9       25    17  10    6.17   610.2    3.5      60.363
2014    9       25    17  15    6.17   610.2    3.5      60.336
2014    9       25    17  20    6.17   610.3    3.5      60.309
2014    9       25    17  26    6.16   610.4    3.5      60.281
2014    9       25    17  31    6.16   610.5    3.5      60.253
2014    9       25    17  37    6.15   610.6    3.5      60.224
2014    9       25    17  42    6.15   610.6    3.5      60.194
2014    9       25    17  47    6.15   610.7    3.5      60.163
2014    9       25    17  53    6.14   610.8    3.5      60.132
2014    9       25    17  58    6.14   610.8    3.5      60.100
2014    9       25    18   4    6.14   610.9    3.5      60.068
2014    9       25    18   9    6.13   610.9    3.5      60.036
2014    9       25    18  14    6.13   611.0    3.5      60.003
2014    9       25    18  20    6.13   611.0    3.5      59.969
2014    9       25    18  25    6.12   611.1    3.5      59.936
2014    9       25    18  31    6.12   611.1    3.5      59.902
2014    9       25    18  36    6.11   611.2    3.5      59.868
2014    9       25    18  41    6.11   611.2    3.5      59.834
2014    9       25    18  47    6.11   611.2    3.5      59.800
2014    9       25    18  52    6.10   611.3    3.5      59.768
2014    9       25    18  57    6.10   611.3    3.5      59.736
2014    9       25    19   3    6.10   611.3    3.5      59.704
2014    9       25    19   8    6.09   611.3    3.5      59.675
2014    9       25    19  14    6.09   611.3    3.4      59.647
2014    9       25    19  19    6.09   611.4    3.4      59.620
2014    9       25    19  24    6.08   611.4    3.4      59.596
2014    9       25    19  30    6.08   611.4    3.4      59.575
2014    9       25    19  35    6.08   611.4    3.4      59.556
2014    9       25    19  41    6.07   611.4    3.4      59.540
2014    9       25    19  46    6.07   611.4    3.4      59.527
2014    9       25    19  51    6.07   611.4    3.4      59.518
2014    9       25    19  57    6.07   611.3    3.4      59.514
2014    9       25    20   2    6.06   611.3    3.4      59.514
2014    9       25    20   7    6.06   611.3    3.4      59.519
2014    9       25    20  13    6.06   611.3    3.4      59.527
2014    9       25    20  18    6.06   611.4    3.4      59.541
2014    9       25    20  24    6.05   611.4    3.4      59.557
2014    9       25    20  29    6.05   611.4    3.4      59.578
2014    9       25    20  34    6.05   611.4    3.4      59.604
2014    9       25    20  40    6.05   611.4    3.4      59.634
2014    9       25    20  45    6.04   611.4    3.4      59.666
2014    9       25    20  51    6.04   611.5    3.4      59.700
2014    9       25    20  56    6.04   611.5    3.4      59.735
2014    9       25    21   1    6.04   611.5    3.4      59.769
2014    9       25    21   7    6.03   611.6    3.4      59.800
2014    9       25    21  12    6.03   611.6    3.4      59.828
2014    9       25    21  18    6.03   611.7    3.4      59.853
2014    9       25    21  23    6.03   611.7    3.4      59.876
2014    9       25    21  28    6.02   611.7    3.4      59.896
2014    9       25    21  34    6.02   611.8    3.4      59.913
2014    9       25    21  39    6.02   611.8    3.4      59.929
2014    9       25    21  44    6.02   611.9    3.4      59.943
2014    9       25    21  50    6.01   611.9    3.4      59.954
2014    9       25    21  55    6.01   611.9    3.4      59.964
2014    9       25    22   1    6.01   612.0    3.4      59.972
2014    9       25    22   6    6.01   612.0    3.4      59.978
2014    9       25    22  11    6.00   612.0    3.4      59.983
2014    9       25    22  17    6.00   612.1    3.4      59.987
2014    9       25    22  22    6.00   612.1    3.4      59.989
2014    9       25    22  28    5.99   612.2    3.4      59.991
2014    9       25    22  33    5.99   612.2    3.4      59.991
2014    9       25    22  38    5.99   612.2    3.4      59.990
2014    9       25    22  44    5.99   612.3    3.4      59.988
2014    9       25    22  49    5.98   612.3    3.4      59.985
2014    9       25    22  55    5.98   612.3    3.4      59.980
2014    9       25    23   0    5.98   612.4    3.4      59.975
2014    9       25    23   5    5.97   612.4    3.4      59.969
2014    9       25    23  11    5.97   612.4    3.4      59.962
2014    9       25    23  16    5.97   612.5    3.4      59.954
2014    9       25    23  21    5.97   612.5    3.4      59.944
2014    9       25    23  27    5.96   612.5    3.4      59.934
2014    9       25    23  32    5.96   612.6    3.4      59.923
2014    9       25    23  38    5.96   612.6    3.4      59.911
2014    9       25    23  43    5.95   612.6    3.4      59.898
2014    9       25    23  48    5.95   612.7    3.4      59.883
2014    9       25    23  54    5.95   612.7    3.4      59.868
2014    9       25    23  59    5.94   612.7    3.4      59.852
2014    9       26     0   5    5.94   612.8    3.4      59.835
2014    9       26     0  10    5.94   612.8    3.4      59.817
2014    9       26     0  15    5.94   612.8    3.4      59.797
2014    9       26     0  21    5.93   612.8    3.4      59.777
2014    9       26     0  26    5.93   612.8    3.4      59.756
2014    9       26     0  31    5.93   612.9    3.4      59.734
2014    9       26     0  37    5.92   612.9    3.4      59.712
2014    9       26     0  42    5.92   612.9    3.4      59.688
2014    9       26     0  48    5.92   612.9    3.4      59.664
2014    9       26     0  53    5.91   612.9    3.4      59.639
2014    9       26     0  58    5.91   612.9    3.4      59.613
2014    9       26     1   4    5.91   613.0    3.4      59.587
2014    9       26     1   9    5.90   613.0    3.4      59.560
2014    9       26     1  15    5.90   613.0    3.4      59.532
2014    9       26     1  20    5.90   613.0    3.4      59.504
2014    9       26     1  25    5.89   613.0    3.4      59.476
2014    9       26     1  31    5.89   613.0    3.4      59.447
2014    9       26     1  36    5.89   613.0    3.4      59.418
2014    9       26     1  42    5.88   613.0    3.4      59.388
2014    9       26     1  47    5.88   613.0    3.4      59.358
2014    9       26     1  52    5.88   612.9    3.4      59.328
2014    9       26     1  58    5.88   612.9    3.4      59.298
2014    9       26     2   3    5.87   612.9    3.4      59.269
2014    9       26     2   8    5.87   612.9    3.3      59.239
2014    9       26     2  14    5.87   612.9    3.3      59.210
2014    9       26     2  19    5.86   612.9    3.3      59.182
2014    9       26     2  25    5.86   612.8    3.3      59.154
2014    9       26     2  30    5.86   612.8    3.3      59.127
2014    9       26     2  35    5.85   612.8    3.3      59.101
2014    9       26     2  41    5.85   612.7    3.3      59.076
2014    9       26     2  46    5.85   612.7    3.3      59.052
2014    9       26     2  52    5.84   612.7    3.3      59.030
2014    9       26     2  57    5.84   612.6    3.3      59.010
2014    9       26     3   2    5.84   612.6    3.3      58.991
2014    9       26     3   8    5.84   612.5    3.3      58.975
2014    9       26     3  13    5.83   612.5    3.3      58.962
2014    9       26     3  19    5.83   612.5    3.3      58.951
2014    9       26     3  24    5.83   612.4    3.3      58.942
2014    9       26     3  29    5.82   612.4    3.3      58.937
2014    9       26     3  35    5.82   612.3    3.3      58.933
2014    9       26     3  40    5.82   612.3    3.3      58.933
2014    9       26     3  45    5.82   612.3    3.3      58.936
2014    9       26     3  51    5.81   612.2    3.3      58.942
2014    9       26     3  56    5.81   612.2    3.3      58.950
2014    9       26     4   2    5.81   612.2    3.3      58.960
2014    9       26     4   7    5.81   612.1    3.3      58.971
2014    9       26     4  12    5.80   612.1    3.3      58.981
2014    9       26     4  18    5.80   612.1    3.3      58.991
2014    9       26     4  23    5.80   612.0    3.3      59.001
2014    9       26     4  29    5.80   612.0    3.3      59.009
2014    9       26     4  34    5.79   611.9    3.3      59.017
2014    9       26     4  39    5.79   611.9    3.3      59.025
2014    9       26     4  45    5.79   611.9    3.3      59.031
2014    9       26     4  50    5.79   611.8    3.3      59.037
2014    9       26     4  56    5.78   611.8    3.3      59.041
2014    9       26     5   1    5.78   611.8    3.3      59.043
2014    9       26     5   6    5.78   611.7    3.3      59.044
2014    9       26     5  12    5.78   611.7    3.3      59.043
2014    9       26     5  17    5.77   611.7    3.3      59.041
2014    9       26     5  22    5.77   611.6    3.3      59.037
2014    9       26     5  28    5.77   611.6    3.3      59.032
2014    9       26     5  33    5.77   611.6    3.3      59.027
2014    9       26     5  39    5.77   611.5    3.3      59.020
2014    9       26     5  44    5.76   611.5    3.3      59.011
2014    9       26     5  49    5.76   611.5    3.3      59.003
2014    9       26     5  55    5.76   611.4    3.3      58.993
2014    9       26     6   0    5.76   611.4    3.3      58.982
2014    9       26     6   6    5.75   611.3    3.3      58.971
2014    9       26     6  11    5.75   611.3    3.3      58.959
2014    9       26     6  16    5.75   611.3    3.3      58.947
2014    9       26     6  22    5.75   611.2    3.3      58.934
2014    9       26     6  27    5.74   611.2    3.3      58.920
2014    9       26     6  33    5.74   611.2    3.3      58.906
2014    9       26     6  38    5.74   611.1    3.3      58.891
2014    9       26     6  43    5.74   611.1    3.3      58.876
2014    9       26     6  49    5.73   611.1    3.3      58.860
2014    9       26     6  54    5.73   611.1    3.3      58.844
2014    9       26     6  59    5.73   611.0    3.3      58.827
2014    9       26     7   5    5.73   611.0    3.3      58.809
2014    9       26     7  10    5.72   611.0    3.3      58.792
2014    9       26     7  16    5.72   610.9    3.3      58.773
2014    9       26     7  21    5.72   610.9    3.3      58.755
2014    9       26     7  26    5.72   610.9    3.3      58.735
2014    9       26     7  32    5.71   610.8    3.3      58.716
2014    9       26     7  37    5.71   610.8    3.3      58.696
2014    9       26     7  43    5.71   610.8    3.3      58.675
2014    9       26     7  48    5.71   610.8    3.3      58.655
2014    9       26     7  53    5.70   610.7    3.3      58.633
2014    9       26     7  59    5.70   610.7    3.3      58.612
2014    9       26     8   4    5.70   610.7    3.3      58.590
2014    9       26     8  10    5.70   610.6    3.3      58.568
2014    9       26     8  15    5.69   610.6    3.3      58.545
2014    9       26     8  20    5.69   610.6    3.3      58.522
2014    9       26     8  26    5.69   610.6    3.3      58.499
2014    9       26     8  31    5.69   610.5    3.3      58.475
2014    9       26     8  36    5.68   610.5    3.3      58.451
2014    9       26     8  42    5.68   610.5    3.3      58.428
2014    9       26     8  47    5.68   610.4    3.3      58.403
2014    9       26     8  53    5.68   610.4    3.3      58.379
2014    9       26     8  58    5.67   610.4    3.3      58.355
2014    9       26     9   3    5.67   610.3    3.3      58.331
2014    9       26     9   9    5.67   610.3    3.3      58.306
2014    9       26     9  14    5.67   610.2    3.3      58.282
2014    9       26     9  20    5.66   610.2    3.3      58.258
2014    9       26     9  25    5.66   610.2    3.3      58.234
2014    9       26     9  30    5.66   610.1    3.3      58.210
2014    9       26     9  36    5.66   610.1    3.3      58.187
2014    9       26     9  41    5.65   610.0    3.3      58.163
2014    9       26     9  46    5.65   610.0    3.3      58.141
2014    9       26     9  52    5.65   610.0    3.3      58.118
2014    9       26     9  57    5.65   609.9    3.3      58.096
2014    9       26    10   3    5.64   609.9    3.3      58.075
2014    9       26    10   8    5.64   609.8    3.3      58.054
2014    9       26    10  13    5.64   609.8    3.3      58.034
2014    9       26    10  19    5.64   609.7    3.3      58.014
2014    9       26    10  24    5.64   609.7    3.3      57.995
2014    9       26    10  30    5.63   609.6    3.3      57.977
2014    9       26    10  35    5.63   609.5    3.3      57.960
2014    9       26    10  40    5.63   609.5    3.3      57.944
2014    9       26    10  46    5.63   609.4    3.3      57.928
2014    9       26    10  51    5.62   609.4    3.3      57.914
2014    9       26    10  57    5.62   609.3    3.3      57.901
2014    9       26    11   2    5.62   609.3    3.3      57.889
2014    9       26    11   7    5.62   609.2    3.3      57.877
2014    9       26    11  13    5.62   609.1    3.3      57.867
2014    9       26    11  18    5.61   609.1    3.3      57.858
2014    9       26    11  23    5.61   609.0    3.3      57.850
2014    9       26    11  29    5.61   608.9    3.3      57.842
2014    9       26    11  34    5.61   608.9    3.3      57.834
2014    9       26    11  40    5.61   608.8    3.3      57.827
2014    9       26    11  45    5.60   608.8    3.3      57.819
2014    9       26    11  50    5.60   608.7    3.3      57.812
2014    9       26    11  56    5.60   608.6    3.3      57.803
2014    9       26    12   1    5.60   608.5    3.2      57.794
2014    9       26    12   7    5.59   608.5    3.2      57.784
2014    9       26    12  12    5.59   608.4    3.2      57.773
2014    9       26    12  17    5.59   608.3    3.2      57.761
2014    9       26    12  23    5.59   608.3    3.2      57.747
2014    9       26    12  28    5.59   608.2    3.2      57.732
2014    9       26    12  34    5.58   608.1    3.2      57.716
2014    9       26    12  39    5.58   608.1    3.2      57.699
2014    9       26    12  44    5.58   608.0    3.2      57.681
2014    9       26    12  50    5.58   607.9    3.2      57.662
2014    9       26    12  55    5.58   607.8    3.2      57.641
2014    9       26    13   0    5.57   607.8    3.2      57.620
2014    9       26    13   6    5.57   607.7    3.2      57.598
2014    9       26    13  11    5.57   607.6    3.2      57.575
2014    9       26    13  17    5.57   607.5    3.2      57.550
2014    9       26    13  22    5.57   607.5    3.2      57.526
2014    9       26    13  27    5.56   607.4    3.2      57.500
2014    9       26    13  33    5.56   607.3    3.2      57.474
2014    9       26    13  38    5.56   607.2    3.2      57.447
2014    9       26    13  44    5.56   607.1    3.2      57.419
2014    9       26    13  49    5.55   607.1    3.2      57.391
2014    9       26    13  54    5.55   607.0    3.2      57.362
2014    9       26    14   0    5.55   606.9    3.2      57.333
2014    9       26    14   5    5.55   606.8    3.2      57.303
2014    9       26    14  11    5.55   606.7    3.2      57.272
2014    9       26    14  16    5.54   606.6    3.2      57.241
2014    9       26    14  21    5.54   606.6    3.2      57.209
2014    9       26    14  27    5.54   606.5    3.2      57.177
2014    9       26    14  32    5.54   606.4    3.2      57.145
2014    9       26    14  37    5.54   606.3    3.2      57.112
2014    9       26    14  43    5.53   606.2    3.2      57.078
2014    9       26    14  48    5.53   606.1    3.2      57.045
2014    9       26    14  54    5.53   606.0    3.2      57.010
2014    9       26    14  59    5.53   606.0    3.2      56.976
2014    9       26    15   4    5.52   605.9    3.2      56.941
2014    9       26    15  10    5.52   605.8    3.2      56.905
2014    9       26    15  15    5.52   605.7    3.2      56.869
2014    9       26    15  21    5.52   605.6    3.2      56.833
2014    9       26    15  26    5.52   605.5    3.2      56.797
2014    9       26    15  31    5.51   605.4    3.2      56.760
2014    9       26    15  37    5.51   605.3    3.2      56.724
2014    9       26    15  42    5.51   605.2    3.2      56.687
2014    9       26    15  48    5.51   605.1    3.2      56.650
2014    9       26    15  53    5.50   605.0    3.2      56.614
2014    9       26    15  58    5.50   604.9    3.2      56.577
2014    9       26    16   4    5.50   604.8    3.2      56.541
2014    9       26    16   9    5.50   604.7    3.2      56.506
2014    9       26    16  14    5.50   604.6    3.2      56.471
2014    9       26    16  20    5.49   604.5    3.2      56.436
2014    9       26    16  25    5.49   604.4    3.2      56.402
2014    9       26    16  31    5.49   604.3    3.2      56.369
2014    9       26    16  36    5.49   604.2    3.2      56.337
2014    9       26    16  41    5.48   604.1    3.2      56.306
2014    9       26    16  47    5.48   603.9    3.2      56.276
2014    9       26    16  52    5.48   603.8    3.2      56.246
2014    9       26    16  58    5.48   603.7    3.2      56.218
2014    9       26    17   3    5.48   603.6    3.2      56.190
2014    9       26    17   8    5.47   603.5    3.2      56.163
2014    9       26    17  14    5.47   603.4    3.2      56.136
2014    9       26    17  19    5.47   603.3    3.2      56.110
2014    9       26    17  25    5.47   603.2    3.2      56.085
2014    9       26    17  30    5.46   603.1    3.2      56.060
2014    9       26    17  35    5.46   603.0    3.2      56.035
2014    9       26    17  41    5.46   602.9    3.2      56.011
2014    9       26    17  46    5.46   602.8    3.2      55.986
2014    9       26    17  51    5.45   602.7    3.2      55.961
2014    9       26    17  57    5.45   602.5    3.2      55.937
2014    9       26    18   2    5.45   602.4    3.2      55.913
2014    9       26    18   8    5.45   602.3    3.2      55.888
2014    9       26    18  13    5.44   602.2    3.2      55.864
2014    9       26    18  18    5.44   602.1    3.2      55.840
2014    9       26    18  24    5.44   602.0    3.2      55.816
2014    9       26    18  29    5.44   601.8    3.2      55.792
2014    9       26    18  35    5.43   601.7    3.2      55.767
2014    9       26    18  40    5.43   601.6    3.2      55.743
2014    9       26    18  45    5.43   601.4    3.2      55.718
2014    9       26    18  51    5.43   601.3    3.2      55.694
2014    9       26    18  56    5.42   601.2    3.2      55.668
2014    9       26    19   1    5.42   601.0    3.2      55.643
2014    9       26    19   7    5.42   600.9    3.2      55.617
2014    9       26    19  12    5.42   600.8    3.2      55.590
2014    9       26    19  18    5.41   600.6    3.2      55.562
2014    9       26    19  23    5.41   600.5    3.2      55.534
2014    9       26    19  28    5.41   600.3    3.2      55.505
2014    9       26    19  34    5.41   600.2    3.2      55.475
2014    9       26    19  39    5.40   600.1    3.2      55.445
2014    9       26    19  45    5.40   599.9    3.2      55.414
2014    9       26    19  50    5.40   599.8    3.2      55.382
2014    9       26    19  55    5.39   599.6    3.2      55.349
2014    9       26    20   1    5.39   599.4    3.2      55.316
2014    9       26    20   6    5.39   599.3    3.2      55.283
2014    9       26    20  12    5.39   599.1    3.2      55.249
2014    9       26    20  17    5.38   599.0    3.2      55.215
2014    9       26    20  22    5.38   598.8    3.2      55.181
2014    9       26    20  28    5.38   598.6    3.2      55.147
2014    9       26    20  33    5.38   598.5    3.2      55.112
2014    9       26    20  38    5.37   598.3    3.2      55.078
2014    9       26    20  44    5.37   598.1    3.2      55.045
2014    9       26    20  49    5.37   598.0    3.2      55.012
2014    9       26    20  55    5.37   597.8    3.2      54.979
2014    9       26    21   0    5.36   597.6    3.2      54.946
2014    9       26    21   5    5.36   597.5    3.2      54.915
2014    9       26    21  11    5.36   597.3    3.2      54.883
2014    9       26    21  16    5.36   597.1    3.2      54.853
2014    9       26    21  22    5.35   596.9    3.2      54.823
2014    9       26    21  27    5.35   596.8    3.2      54.794
2014    9       26    21  32    5.35   596.6    3.2      54.765
2014    9       26    21  38    5.35   596.4    3.2      54.738
2014    9       26    21  43    5.35   596.2    3.2      54.711
2014    9       26    21  49    5.34   596.1    3.2      54.686
2014    9       26    21  54    5.34   595.9    3.2      54.661
2014    9       26    21  59    5.34   595.7    3.2      54.636
2014    9       26    22   5    5.34   595.5    3.2      54.612
2014    9       26    22  10    5.34   595.4    3.2      54.590
2014    9       26    22  15    5.33   595.2    3.2      54.568
2014    9       26    22  21    5.33   595.0    3.2      54.546
2014    9       26    22  26    5.33   594.9    3.2      54.525
2014    9       26    22  32    5.33   594.7    3.2      54.503
2014    9       26    22  37    5.33   594.6    3.2      54.481
2014    9       26    22  42    5.32   594.4    3.2      54.457
2014    9       26    22  48    5.32   594.3    3.2      54.432
2014    9       26    22  53    5.32   594.1    3.2      54.406
2014    9       26    22  59    5.32   593.9    3.2      54.379
2014    9       26    23   4    5.32   593.8    3.2      54.352
2014    9       26    23   9    5.31   593.6    3.2      54.323
2014    9       26    23  15    5.31   593.5    3.2      54.293
2014    9       26    23  20    5.31   593.3    3.2      54.263
2014    9       26    23  26    5.31   593.2    3.2      54.232
2014    9       26    23  31    5.30   593.0    3.2      54.200
2014    9       26    23  36    5.30   592.9    3.2      54.168
2014    9       26    23  42    5.30   592.7    3.2      54.135
2014    9       26    23  47    5.30   592.6    3.2      54.101
2014    9       26    23  52    5.30   592.4    3.2      54.067
2014    9       26    23  58    5.29   592.3    3.2      54.033
2014    9       27     0   3    5.29   592.1    3.2      53.998
2014    9       27     0   9    5.29   592.0    3.2      53.963
2014    9       27     0  14    5.28   591.8    3.2      53.927
2014    9       27     0  19    5.28   591.6    3.2      53.892
2014    9       27     0  25    5.28   591.5    3.2      53.855
2014    9       27     0  30    5.28   591.3    3.2      53.818
2014    9       27     0  36    5.27   591.2    3.1      53.781
2014    9       27     0  41    5.27   591.0    3.1      53.743
2014    9       27     0  46    5.27   590.8    3.1      53.705
2014    9       27     0  52    5.27   590.7    3.1      53.666
2014    9       27     0  57    5.26   590.5    3.1      53.627
2014    9       27     1   2    5.26   590.3    3.1      53.587
2014    9       27     1   8    5.26   590.2    3.1      53.547
2014    9       27     1  13    5.25   590.0    3.1      53.506
2014    9       27     1  19    5.25   589.8    3.1      53.465
2014    9       27     1  24    5.25   589.6    3.1      53.424
2014    9       27     1  29    5.25   589.5    3.1      53.382
2014    9       27     1  35    5.24   589.3    3.1      53.340
2014    9       27     1  40    5.24   589.1    3.1      53.297
2014    9       27     1  46    5.24   588.9    3.1      53.254
2014    9       27     1  51    5.23   588.7    3.1      53.210
2014    9       27     1  56    5.23   588.6    3.1      53.166
2014    9       27     2   2    5.23   588.4    3.1      53.122
2014    9       27     2   7    5.22   588.2    3.1      53.077
2014    9       27     2  13    5.22   588.0    3.1      53.032
2014    9       27     2  18    5.22   587.8    3.1      52.986
2014    9       27     2  23    5.21   587.6    3.1      52.939
2014    9       27     2  29    5.21   587.4    3.1      52.893
2014    9       27     2  34    5.21   587.2    3.1      52.846
2014    9       27     2  39    5.21   587.0    3.1      52.798
2014    9       27     2  45    5.20   586.8    3.1      52.751
2014    9       27     2  50    5.20   586.6    3.1      52.704
2014    9       27     2  56    5.20   586.4    3.1      52.657
2014    9       27     3   1    5.19   586.2    3.1      52.610
2014    9       27     3   6    5.19   586.0    3.1      52.563
2014    9       27     3  12    5.19   585.7    3.1      52.517
2014    9       27     3  17    5.19   585.5    3.1      52.472
2014    9       27     3  23    5.18   585.3    3.1      52.428
2014    9       27     3  28    5.18   585.1    3.1      52.384
2014    9       27     3  33    5.18   584.9    3.1      52.342
2014    9       27     3  39    5.17   584.7    3.1      52.301
2014    9       27     3  44    5.17   584.5    3.1      52.261
2014    9       27     3  50    5.17   584.3    3.1      52.223
2014    9       27     3  55    5.17   584.0    3.1      52.186
2014    9       27     4   0    5.16   583.8    3.1      52.151
2014    9       27     4   6    5.16   583.6    3.1      52.118
2014    9       27     4  11    5.16   583.4    3.1      52.087
2014    9       27     4  16    5.16   583.2    3.1      52.058
2014    9       27     4  22    5.15   583.0    3.1      52.031
2014    9       27     4  27    5.15   582.8    3.1      52.006
2014    9       27     4  33    5.15   582.6    3.1      51.983
2014    9       27     4  38    5.15   582.4    3.1      51.961
2014    9       27     4  43    5.15   582.2    3.1      51.941
2014    9       27     4  49    5.14   582.0    3.1      51.923
2014    9       27     4  54    5.14   581.8    3.1      51.906
2014    9       27     5   0    5.14   581.7    3.1      51.889
2014    9       27     5   5    5.14   581.5    3.1      51.874
2014    9       27     5  10    5.13   581.3    3.1      51.858
2014    9       27     5  16    5.13   581.1    3.1      51.842
2014    9       27     5  21    5.13   580.9    3.1      51.825
2014    9       27     5  26    5.13   580.7    3.1      51.808
2014    9       27     5  32    5.13   580.5    3.1      51.789
2014    9       27     5  37    5.12   580.3    3.1      51.770
2014    9       27     5  43    5.12   580.1    3.1      51.751
2014    9       27     5  48    5.12   579.9    3.1      51.730
2014    9       27     5  53    5.12   579.7    3.1      51.709
2014    9       27     5  59    5.11   579.6    3.1      51.688
2014    9       27     6   4    5.11   579.4    3.1      51.666
2014    9       27     6  10    5.11   579.2    3.1      51.644
2014    9       27     6  15    5.11   579.0    3.1      51.621
2014    9       27     6  20    5.10   578.8    3.1      51.598
2014    9       27     6  26    5.10   578.6    3.1      51.575
2014    9       27     6  31    5.10   578.4    3.1      51.551
2014    9       27     6  37    5.10   578.2    3.1      51.527
2014    9       27     6  42    5.09   577.9    3.1      51.503
2014    9       27     6  47    5.09   577.7    3.2      51.479
2014    9       27     6  53    5.09   577.5    3.2      51.455
2014    9       27     6  58    5.09   577.3    3.2      51.431
2014    9       27     7   3    5.08   577.1    3.2      51.406
2014    9       27     7   9    5.08   576.9    3.2      51.382
2014    9       27     7  14    5.08   576.7    3.2      51.358
2014    9       27     7  20    5.07   576.5    3.2      51.334
2014    9       27     7  25    5.07   576.3    3.2      51.310
2014    9       27     7  30    5.07   576.1    3.2      51.287
2014    9       27     7  36    5.07   575.9    3.2      51.263
2014    9       27     7  41    5.06   575.7    3.2      51.240
2014    9       27     7  47    5.06   575.4    3.2      51.217
2014    9       27     7  52    5.06   575.2    3.2      51.195
2014    9       27     7  57    5.06   575.0    3.2      51.172
2014    9       27     8   3    5.05   574.8    3.2      51.150
2014    9       27     8   8    5.05   574.6    3.2      51.127
2014    9       27     8  14    5.05   574.4    3.2      51.104
2014    9       27     8  19    5.05   574.2    3.2      51.080
2014    9       27     8  24    5.04   574.0    3.2      51.056
2014    9       27     8  30    5.04   573.8    3.2      51.032
2014    9       27     8  35    5.04   573.6    3.2      51.007
2014    9       27     8  40    5.04   573.4    3.2      50.982
2014    9       27     8  46    5.03   573.2    3.2      50.956
2014    9       27     8  51    5.03   573.0    3.2      50.930
2014    9       27     8  57    5.03   572.8    3.2      50.903
2014    9       27     9   2    5.03   572.6    3.2      50.876
2014    9       27     9   7    5.02   572.5    3.2      50.849
2014    9       27     9  13    5.02   572.3    3.2      50.821
2014    9       27     9  18    5.02   572.1    3.2      50.792
2014    9       27     9  24    5.02   571.9    3.2      50.763
2014    9       27     9  29    5.01   571.7    3.2      50.734
2014    9       27     9  34    5.01   571.5    3.2      50.704
2014    9       27     9  40    5.01   571.3    3.2      50.673
2014    9       27     9  45    5.01   571.1    3.2      50.643
2014    9       27     9  50    5.00   570.9    3.2      50.612
2014    9       27     9  56    5.00   570.7    3.2      50.581
2014    9       27    10   1    5.00   570.5    3.2      50.549
2014    9       27    10   7    5.00   570.3    3.2      50.517
2014    9       27    10  12    4.99   570.1    3.2      50.484
2014    9       27    10  17    4.99   569.9    3.2      50.452
2014    9       27    10  23    4.99   569.7    3.2      50.419
2014    9       27    10  28    4.99   569.5    3.2      50.386
2014    9       27    10  34    4.98   569.3    3.2      50.352
2014    9       27    10  39    4.98   569.1    3.2      50.319
2014    9       27    10  44    4.98   568.9    3.2      50.285
2014    9       27    10  50    4.98   568.7    3.2      50.252
2014    9       27    10  55    4.97   568.5    3.2      50.218
2014    9       27    11   1    4.97   568.3    3.2      50.184
2014    9       27    11   6    4.97   568.1    3.2      50.150
2014    9       27    11  11    4.97   567.9    3.2      50.116
2014    9       27    11  17    4.96   567.7    3.2      50.082
2014    9       27    11  22    4.96   567.5    3.2      50.047
2014    9       27    11  27    4.96   567.3    3.2      50.013
2014    9       27    11  33    4.96   567.1    3.2      49.978
2014    9       27    11  38    4.95   566.9    3.2      49.944
2014    9       27    11  44    4.95   566.7    3.2      49.909
2014    9       27    11  49    4.95   566.4    3.2      49.874
2014    9       27    11  54    4.95   566.2    3.2      49.839
2014    9       27    12   0    4.94   566.0    3.2      49.804
2014    9       27    12   5    4.94   565.8    3.2      49.769
2014    9       27    12  11    4.94   565.6    3.2      49.733
2014    9       27    12  16    4.94   565.4    3.2      49.698
2014    9       27    12  21    4.93   565.1    3.2      49.662
2014    9       27    12  27    4.93   564.9    3.2      49.626
2014    9       27    12  32    4.93   564.7    3.2      49.590
2014    9       27    12  38    4.93   564.5    3.2      49.554
2014    9       27    12  43    4.92   564.3    3.2      49.517
2014    9       27    12  48    4.92   564.0    3.2      49.481
2014    9       27    12  54    4.92   563.8    3.2      49.444
2014    9       27    12  59    4.92   563.6    3.2      49.408
2014    9       27    13   4    4.91   563.3    3.2      49.371
2014    9       27    13  10    4.91   563.1    3.2      49.334
2014    9       27    13  15    4.91   562.9    3.2      49.297
2014    9       27    13  21    4.91   562.7    3.2      49.261
2014    9       27    13  26    4.90   562.4    3.2      49.224
2014    9       27    13  31    4.90   562.2    3.2      49.187
2014    9       27    13  37    4.90   561.9    3.2      49.150
2014    9       27    13  42    4.90   561.7    3.2      49.114
2014    9       27    13  48    4.89   561.5    3.2      49.078
2014    9       27    13  53    4.89   561.2    3.2      49.042
2014    9       27    13  58    4.89   561.0    3.2      49.006
2014    9       27    14   4    4.88   560.7    3.2      48.971
2014    9       27    14   9    4.88   560.5    3.2      48.936
2014    9       27    14  14    4.88   560.3    3.2      48.902
2014    9       27    14  20    4.88   560.0    3.2      48.868
2014    9       27    14  25    4.88   559.8    3.2      48.835
2014    9       27    14  31    4.87   559.5    3.2      48.803
2014    9       27    14  36    4.87   559.3    3.2      48.771
2014    9       27    14  41    4.87   559.0    3.2      48.741
2014    9       27    14  47    4.87   558.8    3.2      48.711
2014    9       27    14  52    4.86   558.6    3.2      48.682
2014    9       27    14  58    4.86   558.3    3.2      48.654
2014    9       27    15   3    4.86   558.1    3.2      48.628
2014    9       27    15   8    4.86   557.8    3.2      48.602
2014    9       27    15  14    4.85   557.6    3.2      48.578
2014    9       27    15  19    4.85   557.4    3.2      48.554
2014    9       27    15  25    4.85   557.1    3.2      48.532
2014    9       27    15  30    4.85   556.9    3.2      48.512
2014    9       27    15  35    4.85   556.7    3.2      48.492
2014    9       27    15  41    4.84   556.5    3.2      48.474
2014    9       27    15  46    4.84   556.2    3.2      48.457
2014    9       27    15  51    4.84   556.0    3.2      48.441
2014    9       27    15  57    4.84   555.8    3.2      48.424
2014    9       27    16   2    4.84   555.6    3.2      48.408
2014    9       27    16   8    4.83   555.4    3.2      48.393
2014    9       27    16  13    4.83   555.1    3.2      48.377
2014    9       27    16  18    4.83   554.9    3.2      48.361
2014    9       27    16  24    4.83   554.7    3.2      48.346
2014    9       27    16  29    4.83   554.5    3.2      48.330
2014    9       27    16  35    4.82   554.3    3.2      48.314
2014    9       27    16  40    4.82   554.1    3.2      48.298
2014    9       27    16  45    4.82   553.8    3.2      48.281
2014    9       27    16  51    4.82   553.6    3.2      48.265
2014    9       27    16  56    4.82   553.4    3.2      48.248
2014    9       27    17   1    4.81   553.2    3.2      48.230
2014    9       27    17   7    4.81   553.0    3.2      48.212
2014    9       27    17  12    4.81   552.8    3.2      48.194
2014    9       27    17  18    4.81   552.5    3.2      48.174
2014    9       27    17  23    4.81   552.3    3.2      48.154
2014    9       27    17  28    4.80   552.1    3.2      48.133
2014    9       27    17  34    4.80   551.9    3.2      48.112
2014    9       27    17  39    4.80   551.7    3.2      48.090
2014    9       27    17  45    4.80   551.4    3.2      48.067
2014    9       27    17  50    4.80   551.2    3.2      48.043
2014    9       27    17  55    4.79   551.0    3.3      48.019
2014    9       27    18   1    4.79   550.8    3.3      47.995
2014    9       27    18   6    4.79   550.6    3.3      47.969
2014    9       27    18  12    4.79   550.3    3.3      47.943
2014    9       27    18  17    4.78   550.1    3.3      47.917
2014    9       27    18  22    4.78   549.9    3.3      47.890
2014    9       27    18  28    4.78   549.7    3.3      47.862
2014    9       27    18  33    4.78   549.5    3.3      47.834
2014    9       27    18  38    4.78   549.2    3.3      47.805
2014    9       27    18  44    4.77   549.0    3.3      47.776
2014    9       27    18  49    4.77   548.8    3.3      47.746
2014    9       27    18  55    4.77   548.6    3.3      47.715
2014    9       27    19   0    4.77   548.4    3.3      47.684
2014    9       27    19   5    4.77   548.1    3.3      47.653
2014    9       27    19  11    4.76   547.9    3.3      47.621
2014    9       27    19  16    4.76   547.7    3.3      47.589
2014    9       27    19  22    4.76   547.5    3.3      47.557
2014    9       27    19  27    4.76   547.2    3.3      47.523
2014    9       27    19  32    4.76   547.0    3.3      47.490
2014    9       27    19  38    4.75   546.8    3.3      47.456
2014    9       27    19  43    4.75   546.6    3.3      47.422
2014    9       27    19  48    4.75   546.3    3.3      47.387
2014    9       27    19  54    4.75   546.1    3.3      47.352
2014    9       27    19  59    4.74   545.9    3.3      47.317
2014    9       27    20   5    4.74   545.6    3.3      47.281
2014    9       27    20  10    4.74   545.4    3.3      47.246
2014    9       27    20  15    4.74   545.2    3.3      47.210
2014    9       27    20  21    4.74   545.0    3.3      47.173
2014    9       27    20  26    4.73   544.7    3.3      47.137
2014    9       27    20  32    4.73   544.5    3.3      47.101
2014    9       27    20  37    4.73   544.3    3.3      47.064
2014    9       27    20  42    4.73   544.0    3.3      47.028
2014    9       27    20  48    4.73   543.8    3.3      46.991
2014    9       27    20  53    4.72   543.6    3.3      46.955
2014    9       27    20  59    4.72   543.3    3.3      46.919
2014    9       27    21   4    4.72   543.1    3.3      46.882
2014    9       27    21   9    4.72   542.8    3.3      46.846
2014    9       27    21  15    4.72   542.6    3.3      46.810
2014    9       27    21  20    4.71   542.4    3.3      46.775
2014    9       27    21  25    4.71   542.1    3.3      46.740
2014    9       27    21  31    4.71   541.9    3.3      46.705
2014    9       27    21  36    4.71   541.7    3.3      46.670
2014    9       27    21  42    4.71   541.4    3.3      46.636
2014    9       27    21  47    4.70   541.2    3.3      46.603
2014    9       27    21  52    4.70   541.0    3.3      46.569
2014    9       27    21  58    4.70   540.7    3.3      46.536
2014    9       27    22   3    4.70   540.5    3.3      46.504
2014    9       27    22   9    4.70   540.2    3.3      46.472
2014    9       27    22  14    4.69   540.0    3.3      46.441
2014    9       27    22  19    4.69   539.7    3.3      46.410
2014    9       27    22  25    4.69   539.5    3.3      46.380
2014    9       27    22  30    4.69   539.3    3.3      46.350
2014    9       27    22  35    4.69   539.0    3.3      46.321
2014    9       27    22  41    4.69   538.8    3.3      46.292
2014    9       27    22  46    4.68   538.5    3.3      46.264
2014    9       27    22  52    4.68   538.3    3.3      46.236
2014    9       27    22  57    4.68   538.1    3.3      46.210
2014    9       27    23   2    4.68   537.8    3.3      46.183
2014    9       27    23   8    4.68   537.6    3.3      46.158
2014    9       27    23  13    4.68   537.3    3.3      46.132
2014    9       27    23  19    4.67   537.1    3.3      46.108
2014    9       27    23  24    4.67   536.9    3.3      46.084
2014    9       27    23  29    4.67   536.6    3.3      46.060
2014    9       27    23  35    4.67   536.4    3.3      46.037
2014    9       27    23  40    4.67   536.1    3.3      46.015
2014    9       27    23  46    4.67   535.9    3.3      45.993
2014    9       27    23  51    4.66   535.7    3.3      45.971
2014    9       27    23  56    4.66   535.4    3.3      45.950
2014    9       28     0   2    4.66   535.2    3.3      45.929
2014    9       28     0   7    4.66   534.9    3.3      45.908
2014    9       28     0  12    4.66   534.7    3.3      45.887
2014    9       28     0  18    4.66   534.5    3.3      45.866
2014    9       28     0  23    4.66   534.2    3.3      45.845
2014    9       28     0  29    4.65   534.0    3.3      45.824
2014    9       28     0  34    4.65   533.8    3.3      45.803
2014    9       28     0  39    4.65   533.5    3.3      45.782
2014    9       28     0  45    4.65   533.3    3.3      45.761
2014    9       28     0  50    4.65   533.0    3.3      45.740
2014    9       28     0  56    4.65   532.8    3.3      45.719
2014    9       28     1   1    4.64   532.6    3.3      45.697
2014    9       28     1   6    4.64   532.3    3.3      45.675
2014    9       28     1  12    4.64   532.1    3.3      45.654
2014    9       28     1  17    4.64   531.8    3.3      45.632
2014    9       28     1  22    4.64   531.6    3.3      45.609
2014    9       28     1  28    4.64   531.4    3.4      45.587
2014    9       28     1  33    4.64   531.1    3.4      45.564
2014    9       28     1  39    4.63   530.9    3.4      45.542
2014    9       28     1  44    4.63   530.6    3.4      45.519
2014    9       28     1  49    4.63   530.4    3.4      45.496
2014    9       28     1  55    4.63   530.2    3.4      45.472
2014    9       28     2   0    4.63   529.9    3.4      45.449
2014    9       28     2   6    4.63   529.7    3.4      45.426
2014    9       28     2  11    4.63   529.4    3.4      45.403
2014    9       28     2  16    4.62   529.2    3.4      45.379
2014    9       28     2  22    4.62   529.0    3.4      45.355
2014    9       28     2  27    4.62   528.7    3.4      45.332
2014    9       28     2  33    4.62   528.5    3.4      45.308
2014    9       28     2  38    4.62   528.3    3.4      45.285
2014    9       28     2  43    4.62   528.0    3.4      45.261
2014    9       28     2  49    4.62   527.8    3.4      45.237
2014    9       28     2  54    4.61   527.6    3.4      45.214
2014    9       28     2  59    4.61   527.3    3.4      45.190
2014    9       28     3   5    4.61   527.1    3.4      45.166
2014    9       28     3  10    4.61   526.9    3.4      45.143
2014    9       28     3  16    4.61   526.6    3.4      45.119
2014    9       28     3  21    4.61   526.4    3.4      45.096
2014    9       28     3  26    4.61   526.2    3.4      45.072
2014    9       28     3  32    4.61   526.0    3.4      45.048
2014    9       28     3  37    4.60   525.7    3.4      45.023
2014    9       28     3  43    4.60   525.5    3.4      44.999
2014    9       28     3  48    4.60   525.3    3.4      44.975
2014    9       28     3  53    4.60   525.1    3.4      44.950
2014    9       28     3  59    4.60   524.8    3.4      44.925
2014    9       28     4   4    4.60   524.6    3.4      44.900
2014    9       28     4   9    4.60   524.4    3.4      44.875
2014    9       28     4  15    4.59   524.2    3.4      44.850
2014    9       28     4  20    4.59   524.0    3.4      44.825
2014    9       28     4  26    4.59   523.7    3.4      44.799
2014    9       28     4  31    4.59   523.5    3.4      44.773
2014    9       28     4  36    4.59   523.3    3.4      44.746
2014    9       28     4  42    4.59   523.1    3.4      44.720
2014    9       28     4  47    4.59   522.9    3.4      44.694
2014    9       28     4  53    4.58   522.6    3.4      44.667
2014    9       28     4  58    4.58   522.4    3.4      44.639
2014    9       28     5   3    4.58   522.2    3.4      44.612
2014    9       28     5   9    4.58   522.0    3.4      44.585
2014    9       28     5  14    4.58   521.7    3.4      44.557
2014    9       28     5  19    4.58   521.5    3.4      44.529
2014    9       28     5  25    4.58   521.3    3.4      44.501
2014    9       28     5  30    4.57   521.1    3.4      44.473
2014    9       28     5  36    4.57   520.8    3.4      44.445
2014    9       28     5  41    4.57   520.6    3.4      44.416
2014    9       28     5  46    4.57   520.4    3.4      44.388
2014    9       28     5  52    4.57   520.2    3.4      44.359
2014    9       28     5  57    4.57   520.0    3.4      44.330
2014    9       28     6   3    4.57   519.7    3.4      44.301
2014    9       28     6   8    4.56   519.5    3.4      44.273
2014    9       28     6  13    4.56   519.3    3.4      44.244
2014    9       28     6  19    4.56   519.0    3.4      44.215
2014    9       28     6  24    4.56   518.8    3.4      44.186
2014    9       28     6  30    4.56   518.6    3.4      44.157
2014    9       28     6  35    4.56   518.4    3.4      44.128
2014    9       28     6  40    4.56   518.1    3.4      44.099
2014    9       28     6  46    4.55   517.9    3.4      44.070
2014    9       28     6  51    4.55   517.7    3.4      44.041
2014    9       28     6  56    4.55   517.4    3.4      44.012
2014    9       28     7   2    4.55   517.2    3.4      43.983
2014    9       28     7   7    4.55   517.0    3.4      43.954
2014    9       28     7  13    4.55   516.7    3.5      43.926
2014    9       28     7  18    4.55   516.5    3.5      43.897
2014    9       28     7  23    4.55   516.3    3.5      43.869
2014    9       28     7  29    4.54   516.0    3.5      43.841
2014    9       28     7  34    4.54   515.8    3.5      43.812
2014    9       28     7  40    4.54   515.6    3.5      43.784
2014    9       28     7  45    4.54   515.3    3.5      43.757
2014    9       28     7  50    4.54   515.1    3.5      43.729
2014    9       28     7  56    4.54   514.9    3.5      43.702
2014    9       28     8   1    4.54   514.6    3.5      43.674
2014    9       28     8   6    4.54   514.4    3.5      43.647
2014    9       28     8  12    4.53   514.2    3.5      43.621
2014    9       28     8  17    4.53   513.9    3.5      43.594
2014    9       28     8  23    4.53   513.7    3.5      43.568
2014    9       28     8  28    4.53   513.5    3.5      43.542
2014    9       28     8  33    4.53   513.2    3.5      43.516
2014    9       28     8  39    4.53   513.0    3.5      43.490
2014    9       28     8  44    4.53   512.8    3.5      43.465
2014    9       28     8  50    4.53   512.5    3.5      43.440
2014    9       28     8  55    4.53   512.3    3.5      43.415
2014    9       28     9   0    4.52   512.1    3.5      43.391
2014    9       28     9   6    4.52   511.8    3.5      43.366
2014    9       28     9  11    4.52   511.6    3.5      43.342
2014    9       28     9  16    4.52   511.4    3.5      43.318
2014    9       28     9  22    4.52   511.1    3.5      43.295
2014    9       28     9  27    4.52   510.9    3.5      43.272
2014    9       28     9  33    4.52   510.7    3.5      43.249
2014    9       28     9  38    4.52   510.4    3.5      43.226
2014    9       28     9  43    4.52   510.2    3.5      43.204
2014    9       28     9  49    4.52   510.0    3.5      43.182
2014    9       28     9  54    4.52   509.8    3.5      43.160
2014    9       28    10   0    4.52   509.5    3.5      43.138
2014    9       28    10   5    4.51   509.3    3.5      43.117
2014    9       28    10  10    4.51   509.1    3.5      43.095
2014    9       28    10  16    4.51   508.8    3.5      43.074
2014    9       28    10  21    4.51   508.6    3.5      43.053
2014    9       28    10  27    4.51   508.4    3.5      43.032
2014    9       28    10  32    4.51   508.2    3.5      43.011
2014    9       28    10  37    4.51   508.0    3.5      42.990
2014    9       28    10  43    4.51   507.7    3.5      42.969
2014    9       28    10  48    4.51   507.5    3.5      42.948
2014    9       28    10  53    4.51   507.3    3.5      42.927
2014    9       28    10  59    4.51   507.1    3.5      42.906
2014    9       28    11   4    4.50   506.8    3.5      42.885
2014    9       28    11  10    4.50   506.6    3.5      42.864
2014    9       28    11  15    4.50   506.4    3.5      42.843
2014    9       28    11  20    4.50   506.2    3.6      42.822
2014    9       28    11  26    4.50   505.9    3.6      42.800
2014    9       28    11  31    4.50   505.7    3.6      42.779
2014    9       28    11  37    4.50   505.5    3.6      42.757
2014    9       28    11  42    4.50   505.3    3.6      42.735
2014    9       28    11  47    4.50   505.0    3.6      42.713
2014    9       28    11  53    4.50   504.8    3.6      42.691
2014    9       28    11  58    4.49   504.6    3.6      42.669
2014    9       28    12   3    4.49   504.4    3.6      42.647
2014    9       28    12   9    4.49   504.1    3.6      42.624
2014    9       28    12  14    4.49   503.9    3.6      42.602
2014    9       28    12  20    4.49   503.7    3.6      42.580
2014    9       28    12  25    4.49   503.5    3.6      42.557
2014    9       28    12  30    4.49   503.2    3.6      42.535
2014    9       28    12  36    4.49   503.0    3.6      42.512
2014    9       28    12  41    4.49   502.8    3.6      42.490
2014    9       28    12  47    4.49   502.6    3.6      42.467
2014    9       28    12  52    4.49   502.4    3.6      42.445
2014    9       28    12  57    4.48   502.1    3.6      42.422
2014    9       28    13   3    4.48   501.9    3.6      42.399
2014    9       28    13   8    4.48   501.7    3.6      42.377
2014    9       28    13  14    4.48   501.5    3.6      42.354
2014    9       28    13  19    4.48   501.2    3.6      42.331
2014    9       28    13  24    4.48   501.0    3.6      42.308
2014    9       28    13  30    4.48   500.8    3.6      42.285
2014    9       28    13  35    4.48   500.6    3.6      42.262
2014    9       28    13  40    4.48   500.4    3.6      42.239
2014    9       28    13  46    4.48   500.1    3.6      42.215
2014    9       28    13  51    4.48   499.9    3.6      42.191
2014    9       28    13  57    4.47   499.7    3.6      42.167
2014    9       28    14   2    4.47   499.5    3.6      42.143
2014    9       28    14   7    4.47   499.3    3.6      42.119
2014    9       28    14  13    4.47   499.0    3.6      42.094
2014    9       28    14  18    4.47   498.8    3.6      42.069
2014    9       28    14  24    4.47   498.6    3.6      42.044
2014    9       28    14  29    4.47   498.4    3.6      42.019
2014    9       28    14  34    4.47   498.2    3.6      41.993
2014    9       28    14  40    4.47   497.9    3.6      41.967
2014    9       28    14  45    4.47   497.7    3.6      41.941
2014    9       28    14  50    4.47   497.5    3.6      41.914
2014    9       28    14  56    4.47   497.3    3.6      41.887
2014    9       28    15   1    4.47   497.1    3.6      41.860
2014    9       28    15   7    4.46   496.9    3.6      41.833
2014    9       28    15  12    4.46   496.6    3.6      41.806
2014    9       28    15  17    4.46   496.4    3.6      41.778
2014    9       28    15  23    4.46   496.2    3.6      41.750
2014    9       28    15  28    4.46   496.0    3.6      41.722
2014    9       28    15  34    4.46   495.8    3.6      41.694
2014    9       28    15  39    4.46   495.5    3.6      41.666
2014    9       28    15  44    4.46   495.3    3.6      41.637
2014    9       28    15  50    4.46   495.1    3.6      41.609
2014    9       28    15  55    4.46   494.9    3.6      41.580
2014    9       28    16   0    4.46   494.7    3.6      41.552
2014    9       28    16   6    4.46   494.5    3.6      41.523
2014    9       28    16  11    4.45   494.2    3.6      41.495
2014    9       28    16  17    4.45   494.0    3.7      41.466
2014    9       28    16  22    4.45   493.8    3.7      41.438
2014    9       28    16  27    4.45   493.6    3.7      41.410
2014    9       28    16  33    4.45   493.4    3.7      41.381
2014    9       28    16  38    4.45   493.1    3.7      41.353
2014    9       28    16  44    4.45   492.9    3.7      41.325
2014    9       28    16  49    4.45   492.7    3.7      41.298
2014    9       28    16  54    4.45   492.5    3.7      41.270
2014    9       28    17   0    4.45   492.3    3.7      41.243
2014    9       28    17   5    4.45   492.1    3.7      41.215
2014    9       28    17  11    4.45   491.9    3.7      41.188
2014    9       28    17  16    4.45   491.6    3.7      41.162
2014    9       28    17  21    4.44   491.4    3.7      41.135
2014    9       28    17  27    4.44   491.2    3.7      41.108
2014    9       28    17  32    4.44   491.0    3.7      41.082
2014    9       28    17  37    4.44   490.8    3.7      41.056
2014    9       28    17  43    4.44   490.6    3.7      41.030
2014    9       28    17  48    4.44   490.4    3.7      41.004
2014    9       28    17  54    4.44   490.2    3.7      40.978
2014    9       28    17  59    4.44   489.9    3.7      40.952
2014    9       28    18   4    4.44   489.7    3.7      40.927
2014    9       28    18  10    4.44   489.5    3.7      40.901
2014    9       28    18  15    4.44   489.3    3.7      40.876
2014    9       28    18  21    4.44   489.1    3.7      40.850
2014    9       28    18  26    4.44   488.9    3.7      40.825
2014    9       28    18  31    4.43   488.7    3.7      40.800
2014    9       28    18  37    4.43   488.4    3.7      40.775
2014    9       28    18  42    4.43   488.2    3.7      40.750
2014    9       28    18  47    4.43   488.0    3.7      40.725
2014    9       28    18  53    4.43   487.8    3.7      40.701
2014    9       28    18  58    4.43   487.5    3.7      40.676
2014    9       28    19   4    4.43   487.3    3.7      40.653
2014    9       28    19   9    4.43   487.1    3.7      40.629
2014    9       28    19  14    4.43   486.9    3.7      40.606
2014    9       28    19  20    4.43   486.7    3.7      40.583
2014    9       28    19  25    4.43   486.4    3.7      40.561
2014    9       28    19  31    4.43   486.2    3.7      40.539
2014    9       28    19  36    4.43   486.0    3.7      40.517
2014    9       28    19  41    4.42   485.8    3.7      40.496
2014    9       28    19  47    4.42   485.6    3.7      40.476
2014    9       28    19  52    4.42   485.3    3.7      40.455
2014    9       28    19  57    4.42   485.1    3.7      40.436
2014    9       28    20   3    4.42   484.9    3.7      40.416
2014    9       28    20   8    4.42   484.7    3.7      40.397
2014    9       28    20  14    4.42   484.5    3.7      40.379
2014    9       28    20  19    4.42   484.3    3.8      40.360
2014    9       28    20  24    4.42   484.0    3.8      40.342
2014    9       28    20  30    4.42   483.8    3.8      40.324
2014    9       28    20  35    4.42   483.6    3.8      40.306
2014    9       28    20  41    4.42   483.4    3.8      40.289
2014    9       28    20  46    4.42   483.2    3.8      40.271
2014    9       28    20  51    4.42   483.0    3.8      40.253
2014    9       28    20  57    4.42   482.8    3.8      40.236
2014    9       28    21   2    4.42   482.6    3.8      40.218
2014    9       28    21   8    4.42   482.3    3.8      40.200
2014    9       28    21  13    4.42   482.1    3.8      40.182
2014    9       28    21  18    4.42   481.9    3.8      40.163
2014    9       28    21  24    4.42   481.7    3.8      40.145
2014    9       28    21  29    4.42   481.5    3.8      40.126
2014    9       28    21  34    4.42   481.3    3.8      40.106
2014    9       28    21  40    4.41   481.0    3.8      40.087
2014    9       28    21  45    4.41   480.8    3.8      40.067
2014    9       28    21  51    4.41   480.6    3.8      40.047
2014    9       28    21  56    4.41   480.4    3.8      40.026
2014    9       28    22   1    4.41   480.2    3.8      40.005
2014    9       28    22   7    4.41   480.0    3.8      39.984
2014    9       28    22  12    4.41   479.8    3.8      39.963
2014    9       28    22  18    4.41   479.6    3.8      39.941
2014    9       28    22  23    4.41   479.4    3.8      39.919
2014    9       28    22  28    4.41   479.1    3.8      39.897
2014    9       28    22  34    4.41   478.9    3.8      39.875
2014    9       28    22  39    4.41   478.7    3.8      39.852
2014    9       28    22  44    4.41   478.5    3.8      39.829
2014    9       28    22  50    4.41   478.3    3.8      39.806
2014    9       28    22  55    4.41   478.1    3.8      39.782
2014    9       28    23   1    4.41   477.9    3.8      39.759
2014    9       28    23   6    4.41   477.7    3.8      39.735
2014    9       28    23  11    4.41   477.5    3.8      39.711
2014    9       28    23  17    4.40   477.2    3.8      39.686
2014    9       28    23  22    4.40   477.0    3.8      39.662
2014    9       28    23  28    4.40   476.8    3.8      39.637
2014    9       28    23  33    4.40   476.6    3.8      39.612
2014    9       28    23  38    4.40   476.4    3.8      39.586
2014    9       28    23  44    4.40   476.2    3.8      39.561
2014    9       28    23  49    4.40   476.0    3.8      39.535
2014    9       28    23  54    4.40   475.8    3.8      39.509
2014    9       29     0   0    4.40   475.6    3.8      39.482
2014    9       29     0   5    4.40   475.4    3.9      39.456
2014    9       29     0  11    4.40   475.2    3.9      39.429
2014    9       29     0  16    4.40   474.9    3.9      39.402
2014    9       29     0  21    4.40   474.7    3.9      39.375
2014    9       29     0  27    4.40   474.5    3.9      39.347
2014    9       29     0  32    4.39   474.3    3.9      39.319
2014    9       29     0  38    4.39   474.1    3.9      39.291
2014    9       29     0  43    4.39   473.9    3.9      39.263
2014    9       29     0  48    4.39   473.7    3.9      39.235
2014    9       29     0  54    4.39   473.5    3.9      39.206
2014    9       29     0  59    4.39   473.3    3.9      39.177
2014    9       29     1   5    4.39   473.1    3.9      39.148
2014    9       29     1  10    4.39   472.8    3.9      39.119
2014    9       29     1  15    4.39   472.6    3.9      39.090
2014    9       29     1  21    4.39   472.4    3.9      39.061
2014    9       29     1  26    4.39   472.2    3.9      39.031
2014    9       29     1  31    4.39   472.0    3.9      39.002
2014    9       29     1  37    4.39   471.8    3.9      38.972
2014    9       29     1  42    4.38   471.6    3.9      38.943
2014    9       29     1  48    4.38   471.4    3.9      38.913
2014    9       29     1  53    4.38   471.1    3.9      38.884
2014    9       29     1  58    4.38   470.9    3.9      38.854
2014    9       29     2   4    4.38   470.7    3.9      38.825
2014    9       29     2   9    4.38   470.5    3.9      38.796
2014    9       29     2  15    4.38   470.3    3.9      38.767
2014    9       29     2  20    4.38   470.1    3.9      38.738
2014    9       29     2  25    4.38   469.8    3.9      38.709
2014    9       29     2  31    4.38   469.6    3.9      38.681
2014    9       29     2  36    4.38   469.4    3.9      38.653
2014    9       29     2  41    4.38   469.2    3.9      38.626
2014    9       29     2  47    4.38   469.0    3.9      38.599
2014    9       29     2  52    4.38   468.8    3.9      38.572
2014    9       29     2  58    4.37   468.6    3.9      38.545
2014    9       29     3   3    4.37   468.4    3.9      38.519
2014    9       29     3   8    4.37   468.1    3.9      38.494
2014    9       29     3  14    4.37   467.9    3.9      38.468
2014    9       29     3  19    4.37   467.7    3.9      38.444
2014    9       29     3  25    4.37   467.5    3.9      38.419
2014    9       29     3  30    4.37   467.3    3.9      38.395
2014    9       29     3  35    4.37   467.1    3.9      38.371
2014    9       29     3  41    4.37   466.9    3.9      38.348
2014    9       29     3  46    4.37   466.7    3.9      38.325
2014    9       29     3  51    4.37   466.5    3.9      38.302
2014    9       29     3  57    4.37   466.2    3.9      38.280
2014    9       29     4   2    4.37   466.0    3.9      38.258
2014    9       29     4   8    4.37   465.8    3.9      38.236
2014    9       29     4  13    4.37   465.6    3.9      38.214
2014    9       29     4  18    4.37   465.4    3.9      38.193
2014    9       29     4  24    4.37   465.2    3.9      38.171
2014    9       29     4  29    4.37   465.0    3.9      38.150
2014    9       29     4  35    4.37   464.8    3.9      38.129
2014    9       29     4  40    4.37   464.6    3.9      38.108
2014    9       29     4  45    4.37   464.4    4.0      38.087
2014    9       29     4  51    4.37   464.1    4.0      38.066
2014    9       29     4  56    4.37   463.9    4.0      38.045
2014    9       29     5   2    4.37   463.7    4.0      38.025
2014    9       29     5   7    4.37   463.5    4.0      38.004
2014    9       29     5  12    4.36   463.3    4.0      37.983
2014    9       29     5  18    4.36   463.1    4.0      37.962
2014    9       29     5  23    4.36   462.9    4.0      37.942
2014    9       29     5  28    4.36   462.7    4.0      37.921
2014    9       29     5  34    4.36   462.5    4.0      37.901
2014    9       29     5  39    4.36   462.2    4.0      37.880
2014    9       29     5  45    4.36   462.0    4.0      37.859
2014    9       29     5  50    4.36   461.8    4.0      37.839
2014    9       29     5  55    4.36   461.6    4.0      37.818
2014    9       29     6   1    4.36   461.4    4.0      37.797
2014    9       29     6   6    4.36   461.2    4.0      37.776
2014    9       29     6  12    4.36   461.0    4.0      37.755
2014    9       29     6  17    4.36   460.8    4.0      37.734
2014    9       29     6  22    4.36   460.6    4.0      37.713
2014    9       29     6  28    4.36   460.4    4.0      37.692
2014    9       29     6  33    4.36   460.1    4.0      37.671
2014    9       29     6  38    4.36   459.9    4.0      37.649
2014    9       29     6  44    4.36   459.7    4.0      37.628
2014    9       29     6  49    4.36   459.5    4.0      37.606
2014    9       29     6  55    4.36   459.3    4.0      37.584
2014    9       29     7   0    4.36   459.1    4.0      37.562
2014    9       29     7   5    4.36   458.9    4.0      37.540
2014    9       29     7  11    4.36   458.7    4.0      37.518
2014    9       29     7  16    4.36   458.5    4.0      37.495
2014    9       29     7  22    4.36   458.3    4.0      37.472
2014    9       29     7  27    4.36   458.1    4.0      37.450
2014    9       29     7  32    4.36   457.9    4.0      37.427
2014    9       29     7  38    4.36   457.6    4.0      37.404
2014    9       29     7  43    4.35   457.4    4.0      37.380
2014    9       29     7  48    4.35   457.2    4.0      37.357
2014    9       29     7  54    4.35   457.0    4.1      37.333
2014    9       29     7  59    4.35   456.8    4.1      37.309
2014    9       29     8   5    4.35   456.6    4.1      37.286
2014    9       29     8  10    4.35   456.4    4.1      37.261
2014    9       29     8  15    4.35   456.2    4.1      37.237
2014    9       29     8  21    4.35   456.0    4.1      37.213
2014    9       29     8  26    4.35   455.8    4.1      37.188
2014    9       29     8  32    4.35   455.6    4.1      37.163
2014    9       29     8  37    4.35   455.4    4.1      37.139
2014    9       29     8  42    4.35   455.2    4.1      37.114
2014    9       29     8  48    4.35   455.0    4.1      37.088
2014    9       29     8  53    4.35   454.8    4.1      37.063
2014    9       29     8  58    4.35   454.6    4.1      37.037
2014    9       29     9   4    4.35   454.4    4.1      37.012
2014    9       29     9   9    4.35   454.2    4.1      36.986
2014    9       29     9  15    4.35   454.0    4.1      36.960
2014    9       29     9  20    4.35   453.8    4.1      36.934
2014    9       29     9  25    4.35   453.5    4.1      36.907
2014    9       29     9  31    4.35   453.3    4.1      36.881
2014    9       29     9  36    4.35   453.1    4.1      36.855
2014    9       29     9  42    4.34   452.9    4.1      36.828
2014    9       29     9  47    4.34   452.7    4.1      36.802
2014    9       29     9  52    4.34   452.5    4.1      36.775
2014    9       29     9  58    4.34   452.3    4.1      36.748
2014    9       29    10   3    4.34   452.1    4.1      36.721
2014    9       29    10   9    4.34   451.9    4.1      36.694
2014    9       29    10  14    4.34   451.7    4.1      36.667
2014    9       29    10  19    4.34   451.5    4.1      36.640
2014    9       29    10  25    4.34   451.3    4.1      36.613
2014    9       29    10  30    4.34   451.1    4.1      36.586
2014    9       29    10  35    4.34   450.9    4.1      36.559
2014    9       29    10  41    4.34   450.7    4.1      36.532
2014    9       29    10  46    4.34   450.5    4.1      36.505
2014    9       29    10  52    4.34   450.2    4.1      36.478
2014    9       29    10  57    4.34   450.0    4.1      36.451
2014    9       29    11   2    4.34   449.8    4.1      36.424
2014    9       29    11   8    4.34   449.6    4.1      36.397
2014    9       29    11  13    4.34   449.4    4.1      36.371
2014    9       29    11  19    4.34   449.2    4.1      36.344
2014    9       29    11  24    4.34   449.0    4.1      36.317
2014    9       29    11  29    4.34   448.8    4.1      36.291
2014    9       29    11  35    4.33   448.6    4.1      36.264
2014    9       29    11  40    4.33   448.3    4.1      36.238
2014    9       29    11  45    4.33   448.1    4.1      36.212
2014    9       29    11  51    4.33   447.9    4.1      36.186
2014    9       29    11  56    4.33   447.7    4.1      36.160
2014    9       29    12   2    4.33   447.5    4.1      36.135
2014    9       29    12   7    4.33   447.3    4.2      36.109
2014    9       29    12  12    4.33   447.1    4.2      36.084
2014    9       29    12  18    4.33   446.9    4.2      36.059
2014    9       29    12  23    4.33   446.6    4.2      36.034
2014    9       29    12  29    4.33   446.4    4.2      36.009
2014    9       29    12  34    4.33   446.2    4.2      35.985
2014    9       29    12  39    4.33   446.0    4.2      35.960
2014    9       29    12  45    4.33   445.8    4.2      35.936
2014    9       29    12  50    4.33   445.6    4.2      35.912
2014    9       29    12  55    4.33   445.3    4.2      35.889
2014    9       29    13   1    4.33   445.1    4.2      35.865
2014    9       29    13   6    4.33   444.9    4.2      35.842
2014    9       29    13  12    4.33   444.7    4.2      35.819
2014    9       29    13  17    4.33   444.5    4.2      35.795
2014    9       29    13  22    4.33   444.3    4.2      35.773
2014    9       29    13  28    4.33   444.1    4.2      35.750
2014    9       29    13  33    4.33   443.9    4.2      35.727
2014    9       29    13  39    4.33   443.6    4.2      35.705
2014    9       29    13  44    4.33   443.4    4.2      35.683
2014    9       29    13  49    4.33   443.2    4.2      35.660
2014    9       29    13  55    4.33   443.0    4.2      35.639
2014    9       29    14   0    4.33   442.8    4.2      35.617
2014    9       29    14   6    4.33   442.6    4.2      35.595
2014    9       29    14  11    4.33   442.4    4.2      35.573
2014    9       29    14  16    4.33   442.1    4.2      35.551
2014    9       29    14  22    4.33   441.9    4.2      35.529
2014    9       29    14  27    4.33   441.7    4.2      35.508
2014    9       29    14  32    4.33   441.5    4.2      35.486
2014    9       29    14  38    4.33   441.3    4.2      35.464
2014    9       29    14  43    4.33   441.1    4.2      35.442
2014    9       29    14  49    4.33   440.9    4.2      35.420
2014    9       29    14  54    4.33   440.7    4.2      35.399
2014    9       29    14  59    4.33   440.5    4.2      35.377
2014    9       29    15   5    4.33   440.3    4.3      35.355
2014    9       29    15  10    4.33   440.0    4.3      35.333
2014    9       29    15  16    4.33   439.8    4.3      35.311
2014    9       29    15  21    4.33   439.6    4.3      35.289
2014    9       29    15  26    4.33   439.4    4.3      35.267
2014    9       29    15  32    4.33   439.2    4.3      35.245
2014    9       29    15  37    4.33   439.0    4.3      35.223
2014    9       29    15  42    4.33   438.8    4.3      35.200
2014    9       29    15  48    4.33   438.6    4.3      35.178
2014    9       29    15  53    4.33   438.4    4.3      35.155
2014    9       29    15  59    4.33   438.2    4.3      35.133
2014    9       29    16   4    4.33   438.0    4.3      35.110
2014    9       29    16   9    4.33   437.8    4.3      35.087
2014    9       29    16  15    4.33   437.6    4.3      35.064
2014    9       29    16  20    4.33   437.3    4.3      35.040
2014    9       29    16  26    4.33   437.1    4.3      35.017
2014    9       29    16  31    4.33   436.9    4.3      34.993
2014    9       29    16  36    4.33   436.7    4.3      34.969
2014    9       29    16  42    4.33   436.5    4.3      34.945
2014    9       29    16  47    4.33   436.3    4.3      34.921
2014    9       29    16  52    4.33   436.1    4.3      34.897
2014    9       29    16  58    4.33   435.9    4.3      34.872
2014    9       29    17   3    4.33   435.7    4.3      34.848
2014    9       29    17   9    4.33   435.5    4.3      34.823
2014    9       29    17  14    4.33   435.3    4.3      34.798
2014    9       29    17  19    4.33   435.1    4.3      34.774
2014    9       29    17  25    4.33   434.9    4.3      34.749
2014    9       29    17  30    4.33   434.7    4.3      34.724
2014    9       29    17  36    4.33   434.5    4.3      34.699
2014    9       29    17  41    4.33   434.3    4.3      34.673
2014    9       29    17  46    4.33   434.1    4.3      34.648
2014    9       29    17  52    4.33   433.9    4.3      34.623
2014    9       29    17  57    4.33   433.7    4.4      34.597
2014    9       29    18   2    4.33   433.5    4.4      34.572
2014    9       29    18   8    4.32   433.3    4.4      34.546
2014    9       29    18  13    4.32   433.1    4.4      34.520
2014    9       29    18  19    4.32   432.9    4.4      34.495
2014    9       29    18  24    4.32   432.7    4.4      34.469
2014    9       29    18  29    4.32   432.5    4.4      34.443
2014    9       29    18  35    4.32   432.3    4.4      34.417
2014    9       29    18  40    4.32   432.0    4.4      34.391
2014    9       29    18  46    4.32   431.8    4.4      34.365
2014    9       29    18  51    4.32   431.6    4.4      34.339
2014    9       29    18  56    4.32   431.4    4.4      34.313
2014    9       29    19   2    4.32   431.2    4.4      34.287
2014    9       29    19   7    4.32   431.0    4.4      34.261
2014    9       29    19  13    4.32   430.8    4.4      34.236
2014    9       29    19  18    4.32   430.6    4.4      34.210
2014    9       29    19  23    4.32   430.4    4.4      34.184
2014    9       29    19  29    4.32   430.2    4.4      34.158
2014    9       29    19  34    4.32   430.0    4.4      34.132
2014    9       29    19  39    4.32   429.8    4.4      34.106
2014    9       29    19  45    4.32   429.6    4.4      34.081
2014    9       29    19  50    4.32   429.4    4.4      34.055
2014    9       29    19  56    4.32   429.1    4.4      34.030
2014    9       29    20   1    4.32   428.9    4.4      34.004
2014    9       29    20   6    4.32   428.7    4.4      33.979
2014    9       29    20  12    4.32   428.5    4.4      33.954
2014    9       29    20  17    4.32   428.3    4.4      33.929
2014    9       29    20  23    4.32   428.1    4.4      33.904
2014    9       29    20  28    4.32   427.9    4.4      33.879
2014    9       29    20  33    4.32   427.7    4.4      33.855
2014    9       29    20  39    4.32   427.5    4.4      33.830
2014    9       29    20  44    4.32   427.2    4.4      33.806
2014    9       29    20  49    4.32   427.0    4.4      33.782
2014    9       29    20  55    4.32   426.8    4.5      33.758
2014    9       29    21   0    4.32   426.6    4.5      33.734
2014    9       29    21   6    4.32   426.4    4.5      33.711
2014    9       29    21  11    4.32   426.2    4.5      33.687
2014    9       29    21  16    4.32   426.0    4.5      33.664
2014    9       29    21  22    4.32   425.8    4.5      33.641
2014    9       29    21  27    4.32   425.5    4.5      33.618
2014    9       29    21  33    4.32   425.3    4.5      33.596
2014    9       29    21  38    4.32   425.1    4.5      33.573
2014    9       29    21  43    4.32   424.9    4.5      33.551
2014    9       29    21  49    4.32   424.7    4.5      33.529
2014    9       29    21  54    4.32   424.5    4.5      33.507
2014    9       29    21  59    4.32   424.3    4.5      33.485
2014    9       29    22   5    4.32   424.0    4.5      33.463
2014    9       29    22  10    4.32   423.8    4.5      33.442
2014    9       29    22  16    4.32   423.6    4.5      33.420
2014    9       29    22  21    4.32   423.4    4.5      33.399
2014    9       29    22  26    4.32   423.2    4.5      33.378
2014    9       29    22  32    4.33   423.0    4.5      33.357
2014    9       29    22  37    4.33   422.8    4.5      33.336
2014    9       29    22  43    4.33   422.6    4.5      33.315
2014    9       29    22  48    4.33   422.3    4.5      33.295
2014    9       29    22  53    4.33   422.1    4.5      33.274
2014    9       29    22  59    4.33   421.9    4.5      33.254
2014    9       29    23   4    4.33   421.7    4.5      33.233
2014    9       29    23  10    4.33   421.5    4.6      33.212
2014    9       29    23  15    4.33   421.3    4.6      33.192
2014    9       29    23  20    4.33   421.1    4.6      33.172
2014    9       29    23  26    4.33   420.9    4.6      33.151
2014    9       29    23  31    4.33   420.6    4.6      33.131
2014    9       29    23  36    4.33   420.4    4.6      33.110
2014    9       29    23  42    4.33   420.2    4.6      33.090
2014    9       29    23  47    4.33   420.0    4.6      33.069
2014    9       29    23  53    4.33   419.8    4.6      33.048
2014    9       29    23  58    4.33   419.6    4.6      33.027
2014    9       30     0   3    4.33   419.4    4.6      33.007
2014    9       30     0   9    4.33   419.2    4.6      32.985
2014    9       30     0  14    4.33   419.0    4.6      32.964
2014    9       30     0  20    4.33   418.8    4.6      32.943
2014    9       30     0  25    4.33   418.5    4.6      32.922
2014    9       30     0  30    4.33   418.3    4.6      32.900
2014    9       30     0  36    4.33   418.1    4.6      32.878
2014    9       30     0  41    4.33   417.9    4.6      32.857
2014    9       30     0  46    4.33   417.7    4.6      32.835
2014    9       30     0  52    4.34   417.5    4.6      32.813
2014    9       30     0  57    4.34   417.3    4.6      32.791
2014    9       30     1   3    4.34   417.1    4.6      32.768
2014    9       30     1   8    4.34   416.9    4.6      32.746
2014    9       30     1  13    4.34   416.7    4.6      32.724
2014    9       30     1  19    4.34   416.5    4.7      32.701
2014    9       30     1  24    4.34   416.3    4.7      32.678
2014    9       30     1  30    4.34   416.1    4.7      32.656
2014    9       30     1  35    4.34   415.9    4.7      32.633
2014    9       30     1  40    4.34   415.6    4.7      32.610
2014    9       30     1  46    4.34   415.4    4.7      32.587
2014    9       30     1  51    4.34   415.2    4.7      32.564
2014    9       30     1  56    4.34   415.0    4.7      32.541
2014    9       30     2   2    4.34   414.8    4.7      32.517
2014    9       30     2   7    4.34   414.6    4.7      32.494
2014    9       30     2  13    4.34   414.4    4.7      32.470
2014    9       30     2  18    4.34   414.2    4.7      32.447
2014    9       30     2  23    4.34   414.0    4.7      32.423
2014    9       30     2  29    4.34   413.8    4.7      32.400
2014    9       30     2  34    4.35   413.6    4.7      32.376
2014    9       30     2  40    4.35   413.4    4.7      32.352
2014    9       30     2  45    4.35   413.2    4.7      32.329
2014    9       30     2  50    4.35   413.0    4.7      32.305
2014    9       30     2  56    4.35   412.8    4.7      32.281
2014    9       30     3   1    4.35   412.6    4.7      32.257
2014    9       30     3   6    4.35   412.4    4.7      32.233
2014    9       30     3  12    4.35   412.2    4.7      32.210
2014    9       30     3  17    4.35   412.0    4.7      32.186
2014    9       30     3  23    4.35   411.8    4.7      32.162
2014    9       30     3  28    4.35   411.6    4.7      32.138
2014    9       30     3  33    4.35   411.4    4.8      32.114
2014    9       30     3  39    4.35   411.2    4.8      32.091
2014    9       30     3  44    4.35   410.9    4.8      32.067
2014    9       30     3  50    4.35   410.7    4.8      32.043
2014    9       30     3  55    4.35   410.5    4.8      32.020
2014    9       30     4   0    4.36   410.3    4.8      31.996
2014    9       30     4   6    4.36   410.1    4.8      31.973
2014    9       30     4  11    4.36   409.9    4.8      31.949
2014    9       30     4  16    4.36   409.7    4.8      31.926
2014    9       30     4  22    4.36   409.5    4.8      31.903
2014    9       30     4  27    4.36   409.3    4.8      31.879
2014    9       30     4  33    4.36   409.1    4.8      31.856
2014    9       30     4  38    4.36   408.9    4.8      31.833
2014    9       30     4  43    4.36   408.7    4.8      31.811
2014    9       30     4  49    4.36   408.5    4.8      31.788
2014    9       30     4  54    4.36   408.3    4.8      31.765
2014    9       30     5   0    4.36   408.1    4.8      31.743
2014    9       30     5   5    4.36   407.9    4.8      31.720
2014    9       30     5  10    4.36   407.7    4.8      31.698
2014    9       30     5  16    4.36   407.5    4.8      31.676
2014    9       30     5  21    4.37   407.3    4.8      31.654
2014    9       30     5  27    4.37   407.1    4.8      31.632
2014    9       30     5  32    4.37   406.9    4.9      31.611
2014    9       30     5  37    4.37   406.7    4.9      31.589
2014    9       30     5  43    4.37   406.5    4.9      31.568
2014    9       30     5  48    4.37   406.3    4.9      31.547
2014    9       30     5  53    4.37   406.1    4.9      31.526
2014    9       30     5  59    4.37   405.9    4.9      31.505
2014    9       30     6   4    4.37   405.7    4.9      31.484
2014    9       30     6  10    4.37   405.5    4.9      31.464
2014    9       30     6  15    4.37   405.3    4.9      31.444
2014    9       30     6  20    4.37   405.1    4.9      31.423
2014    9       30     6  26    4.38   404.8    4.9      31.403
2014    9       30     6  31    4.38   404.6    4.9      31.384
2014    9       30     6  37    4.38   404.4    4.9      31.364
2014    9       30     6  42    4.38   404.2    4.9      31.344
2014    9       30     6  47    4.38   404.0    4.9      31.325
2014    9       30     6  53    4.38   403.8    4.9      31.306
2014    9       30     6  58    4.38   403.6    4.9      31.287
2014    9       30     7   3    4.38   403.4    5.0      31.267
2014    9       30     7   9    4.38   403.2    5.0      31.249
2014    9       30     7  14    4.38   403.0    5.0      31.230
2014    9       30     7  20    4.39   402.8    5.0      31.211
2014    9       30     7  25    4.39   402.6    5.0      31.192
2014    9       30     7  30    4.39   402.4    5.0      31.174
2014    9       30     7  36    4.39   402.2    5.0      31.155
2014    9       30     7  41    4.39   402.0    5.0      31.137
2014    9       30     7  47    4.39   401.8    5.0      31.119
2014    9       30     7  52    4.39   401.6    5.0      31.100
2014    9       30     7  57    4.39   401.4    5.0      31.082
2014    9       30     8   3    4.39   401.2    5.0      31.064
2014    9       30     8   8    4.40   401.0    5.0      31.046
2014    9       30     8  13    4.40   400.9    5.0      31.027
2014    9       30     8  19    4.40   400.7    5.0      31.009
2014    9       30     8  24    4.40   400.5    5.0      30.991
2014    9       30     8  30    4.40   400.3    5.0      30.972
2014    9       30     8  35    4.40   400.1    5.1      30.954
2014    9       30     8  40    4.40   399.9    5.1      30.936
2014    9       30     8  46    4.40   399.7    5.1      30.917
2014    9       30     8  51    4.41   399.5    5.1      30.899
2014    9       30     8  57    4.41   399.3    5.1      30.880
2014    9       30     9   2    4.41   399.1    5.1      30.862
2014    9       30     9   7    4.41   398.9    5.1      30.843
2014    9       30     9  13    4.41   398.7    5.1      30.824
2014    9       30     9  18    4.41   398.5    5.1      30.806
2014    9       30     9  24    4.41   398.3    5.1      30.787
2014    9       30     9  29    4.42   398.1    5.1      30.768
2014    9       30     9  34    4.42   397.9    5.1      30.749
2014    9       30     9  40    4.42   397.7    5.1      30.730
2014    9       30     9  45    4.42   397.5    5.1      30.711
2014    9       30     9  50    4.42   397.3    5.1      30.691
2014    9       30     9  56    4.42   397.1    5.1      30.672
2014    9       30    10   1    4.42   397.0    5.1      30.652
2014    9       30    10   7    4.42   396.8    5.2      30.633
2014    9       30    10  12    4.43   396.6    5.2      30.613
2014    9       30    10  17    4.43   396.4    5.2      30.594
2014    9       30    10  23    4.43   396.2    5.2      30.574
2014    9       30    10  28    4.43   396.0    5.2      30.554
2014    9       30    10  34    4.43   395.8    5.2      30.534
2014    9       30    10  39    4.43   395.6    5.2      30.514
2014    9       30    10  44    4.43   395.4    5.2      30.494
2014    9       30    10  50    4.44   395.2    5.2      30.474
2014    9       30    10  55    4.44   395.0    5.2      30.453
2014    9       30    11   0    4.44   394.8    5.2      30.433
2014    9       30    11   6    4.44   394.7    5.2      30.413
2014    9       30    11  11    4.44   394.5    5.2      30.392
2014    9       30    11  17    4.44   394.3    5.2      30.372
2014    9       30    11  22    4.45   394.1    5.2      30.351
2014    9       30    11  27    4.45   393.9    5.2      30.330
2014    9       30    11  33    4.45   393.7    5.2      30.310
2014    9       30    11  38    4.45   393.5    5.2      30.289
2014    9       30    11  44    4.45   393.3    5.3      30.269
2014    9       30    11  49    4.45   393.1    5.3      30.248
2014    9       30    11  54    4.45   392.9    5.3      30.227
2014    9       30    12   0    4.46   392.8    5.3      30.207
2014    9       30    12   5    4.46   392.6    5.3      30.186
2014    9       30    12  10    4.46   392.4    5.3      30.166
2014    9       30    12  16    4.46   392.2    5.3      30.146
2014    9       30    12  21    4.46   392.0    5.3      30.125
2014    9       30    12  27    4.46   391.8    5.3      30.105
2014    9       30    12  32    4.47   391.6    5.3      30.085
2014    9       30    12  37    4.47   391.4    5.3      30.065
2014    9       30    12  43    4.47   391.2    5.3      30.045
2014    9       30    12  48    4.47   391.1    5.3      30.025
2014    9       30    12  54    4.47   390.9    5.3      30.006
2014    9       30    12  59    4.47   390.7    5.3      29.986
2014    9       30    13   4    4.48   390.5    5.3      29.967
2014    9       30    13  10    4.48   390.3    5.4      29.948
2014    9       30    13  15    4.48   390.1    5.4      29.928
2014    9       30    13  21    4.48   389.9    5.4      29.910
2014    9       30    13  26    4.48   389.8    5.4      29.891
2014    9       30    13  31    4.48   389.6    5.4      29.872
2014    9       30    13  37    4.49   389.4    5.4      29.854
2014    9       30    13  42    4.49   389.2    5.4      29.836
2014    9       30    13  47    4.49   389.0    5.4      29.818
2014    9       30    13  53    4.49   388.8    5.4      29.801
2014    9       30    13  58    4.49   388.7    5.4      29.783
2014    9       30    14   4    4.50   388.5    5.4      29.766
2014    9       30    14   9    4.50   388.3    5.4      29.749
2014    9       30    14  14    4.50   388.1    5.4      29.732
2014    9       30    14  20    4.50   387.9    5.5      29.716
2014    9       30    14  25    4.50   387.8    5.5      29.700
2014    9       30    14  31    4.51   387.6    5.5      29.684
2014    9       30    14  36    4.51   387.4    5.5      29.668
2014    9       30    14  41    4.51   387.2    5.5      29.652
2014    9       30    14  47    4.51   387.0    5.5      29.637
2014    9       30    14  52    4.51   386.9    5.5      29.622
2014    9       30    14  57    4.52   386.7    5.5      29.607
2014    9       30    15   3    4.52   386.5    5.5      29.592
2014    9       30    15   8    4.52   386.3    5.5      29.578
2014    9       30    15  14    4.52   386.2    5.5      29.564
2014    9       30    15  19    4.53   386.0    5.5      29.549
2014    9       30    15  24    4.53   385.8    5.6      29.536
2014    9       30    15  30    4.53   385.6    5.6      29.522
2014    9       30    15  35    4.53   385.5    5.6      29.508
2014    9       30    15  41    4.53   385.3    5.6      29.495
2014    9       30    15  46    4.54   385.1    5.6      29.482
2014    9       30    15  51    4.54   384.9    5.6      29.469
2014    9       30    15  57    4.54   384.8    5.6      29.456
2014    9       30    16   2    4.54   384.6    5.6      29.443
2014    9       30    16   7    4.55   384.4    5.6      29.430
2014    9       30    16  13    4.55   384.3    5.6      29.418
2014    9       30    16  18    4.55   384.1    5.6      29.405
2014    9       30    16  24    4.55   383.9    5.7      29.393
2014    9       30    16  29    4.55   383.8    5.7      29.380
2014    9       30    16  34    4.56   383.6    5.7      29.368
2014    9       30    16  40    4.56   383.4    5.7      29.356
2014    9       30    16  45    4.56   383.3    5.7      29.344
2014    9       30    16  51    4.56   383.1    5.7      29.332
2014    9       30    16  56    4.57   382.9    5.7      29.320
2014    9       30    17   1    4.57   382.8    5.7      29.308
2014    9       30    17   7    4.57   382.6    5.7      29.296
2014    9       30    17  12    4.57   382.4    5.7      29.284
2014    9       30    17  17    4.58   382.3    5.7      29.271
2014    9       30    17  23    4.58   382.1    5.7      29.259
2014    9       30    17  28    4.58   382.0    5.8      29.247
2014    9       30    17  34    4.58   381.8    5.8      29.235
2014    9       30    17  39    4.59   381.6    5.8      29.224
2014    9       30    17  44    4.59   381.5    5.8      29.211
2014    9       30    17  50    4.59   381.3    5.8      29.199
2014    9       30    17  55    4.59   381.2    5.8      29.187
2014    9       30    18   1    4.60   381.0    5.8      29.175
2014    9       30    18   6    4.60   380.8    5.8      29.163
2014    9       30    18  11    4.60   380.7    5.8      29.151
2014    9       30    18  17    4.60   380.5    5.8      29.139
2014    9       30    18  22    4.60   380.4    5.8      29.126
2014    9       30    18  27    4.61   380.2    5.9      29.114
2014    9       30    18  33    4.61   380.1    5.9      29.102
2014    9       30    18  38    4.61   379.9    5.9      29.090
2014    9       30    18  44    4.61   379.7    5.9      29.077
2014    9       30    18  49    4.62   379.6    5.9      29.065
2014    9       30    18  54    4.62   379.4    5.9      29.053
2014    9       30    19   0    4.62   379.3    5.9      29.041
2014    9       30    19   5    4.62   379.1    5.9      29.028
2014    9       30    19  11    4.63   379.0    5.9      29.016
2014    9       30    19  16    4.63   378.8    5.9      29.004
2014    9       30    19  21    4.63   378.7    5.9      28.992
2014    9       30    19  27    4.64   378.5    5.9      28.980
2014    9       30    19  32    4.64   378.4    6.0      28.967
2014    9       30    19  38    4.64   378.2    6.0      28.955
2014    9       30    19  43    4.64   378.1    6.0      28.943
2014    9       30    19  48    4.65   377.9    6.0      28.931
2014    9       30    19  54    4.65   377.7    6.0      28.920
2014    9       30    19  59    4.65   377.6    6.0      28.908
2014    9       30    20   4    4.65   377.4    6.0      28.896
2014    9       30    20  10    4.66   377.3    6.0      28.884
2014    9       30    20  15    4.66   377.1    6.0      28.873
2014    9       30    20  21    4.66   377.0    6.0      28.862
2014    9       30    20  26    4.66   376.9    6.0      28.850
2014    9       30    20  31    4.67   376.7    6.0      28.839
2014    9       30    20  37    4.67   376.6    6.1      28.828
2014    9       30    20  42    4.67   376.4    6.1      28.817
2014    9       30    20  48    4.68   376.3    6.1      28.807
2014    9       30    20  53    4.68   376.1    6.1      28.796
2014    9       30    20  58    4.68   376.0    6.1      28.786
2014    9       30    21   4    4.68   375.8    6.1      28.776
2014    9       30    21   9    4.69   375.7    6.1      28.766
2014    9       30    21  14    4.69   375.5    6.1      28.756
2014    9       30    21  20    4.69   375.4    6.1      28.746
2014    9       30    21  25    4.70   375.3    6.1      28.737
2014    9       30    21  31    4.70   375.1    6.2      28.727
2014    9       30    21  36    4.70   375.0    6.2      28.718
2014    9       30    21  41    4.71   374.8    6.2      28.710
2014    9       30    21  47    4.71   374.7    6.2      28.701
2014    9       30    21  52    4.71   374.6    6.2      28.692
2014    9       30    21  58    4.71   374.4    6.2      28.684
2014    9       30    22   3    4.72   374.3    6.2      28.676
2014    9       30    22   8    4.72   374.1    6.2      28.669
2014    9       30    22  14    4.72   374.0    6.2      28.661
2014    9       30    22  19    4.73   373.9    6.2      28.654
2014    9       30    22  24    4.73   373.7    6.3      28.646
2014    9       30    22  30    4.73   373.6    6.3      28.640
2014    9       30    22  35    4.74   373.5    6.3      28.633
2014    9       30    22  41    4.74   373.4    6.3      28.626
2014    9       30    22  46    4.74   373.2    6.3      28.620
2014    9       30    22  51    4.75   373.1    6.3      28.614
2014    9       30    22  57    4.75   373.0    6.3      28.608
2014    9       30    23   2    4.75   372.8    6.3      28.602
2014    9       30    23   8    4.76   372.7    6.3      28.596
2014    9       30    23  13    4.76   372.6    6.3      28.591
2014    9       30    23  18    4.76   372.5    6.4      28.585
2014    9       30    23  24    4.77   372.3    6.4      28.580
2014    9       30    23  29    4.77   372.2    6.4      28.575
2014    9       30    23  35    4.77   372.1    6.4      28.570
2014    9       30    23  40    4.78   372.0    6.4      28.566
2014    9       30    23  45    4.78   371.8    6.4      28.561
2014    9       30    23  51    4.78   371.7    6.4      28.556
2014    9       30    23  56    4.79   371.6    6.4      28.552
2014   10        1     0   1    4.79   371.5    6.4      28.548
2014   10        1     0   7    4.79   371.3    6.5      28.544
2014   10        1     0  12    4.79   371.2    6.5      28.540
2014   10        1     0  18    4.80   371.1    6.5      28.535
2014   10        1     0  23    4.80   371.0    6.5      28.532
2014   10        1     0  28    4.80   370.9    6.5      28.528
2014   10        1     0  34    4.81   370.8    6.5      28.524
2014   10        1     0  39    4.81   370.6    6.5      28.520
2014   10        1     0  45    4.82   370.5    6.5      28.517
2014   10        1     0  50    4.82   370.4    6.5      28.514
2014   10        1     0  55    4.82   370.3    6.6      28.510
2014   10        1     1   1    4.83   370.2    6.6      28.507
2014   10        1     1   6    4.83   370.1    6.6      28.503
2014   10        1     1  11    4.83   369.9    6.6      28.500
2014   10        1     1  17    4.84   369.8    6.6      28.497
2014   10        1     1  22    4.84   369.7    6.6      28.494
2014   10        1     1  28    4.84   369.6    6.6      28.491
2014   10        1     1  33    4.85   369.5    6.6      28.488
2014   10        1     1  38    4.85   369.4    6.6      28.485
2014   10        1     1  44    4.85   369.3    6.6      28.482
2014   10        1     1  49    4.86   369.2    6.7      28.479
2014   10        1     1  55    4.86   369.1    6.7      28.476
2014   10        1     2   0    4.86   368.9    6.7      28.473
2014   10        1     2   5    4.87   368.8    6.7      28.470
2014   10        1     2  11    4.87   368.7    6.7      28.467
2014   10        1     2  16    4.87   368.6    6.7      28.465
2014   10        1     2  21    4.88   368.5    6.7      28.462
2014   10        1     2  27    4.88   368.4    6.7      28.459
2014   10        1     2  32    4.88   368.3    6.7      28.456
2014   10        1     2  38    4.89   368.2    6.7      28.454
2014   10        1     2  43    4.89   368.1    6.8      28.451
2014   10        1     2  48    4.89   368.0    6.8      28.449
2014   10        1     2  54    4.90   367.9    6.8      28.446
2014   10        1     2  59    4.90   367.8    6.8      28.444
2014   10        1     3   5    4.90   367.7    6.8      28.442
2014   10        1     3  10    4.91   367.6    6.8      28.439
2014   10        1     3  15    4.91   367.5    6.8      28.437
2014   10        1     3  21    4.91   367.4    6.8      28.435
2014   10        1     3  26    4.92   367.3    6.8      28.433
2014   10        1     3  31    4.92   367.2    6.8      28.430
2014   10        1     3  37    4.92   367.1    6.9      28.428
2014   10        1     3  42    4.93   367.0    6.9      28.426
2014   10        1     3  48    4.93   366.9    6.9      28.424
2014   10        1     3  53    4.94   366.8    6.9      28.422
2014   10        1     3  58    4.94   366.7    6.9      28.421
2014   10        1     4   4    4.94   366.6    6.9      28.419
2014   10        1     4   9    4.95   366.5    6.9      28.417
2014   10        1     4  15    4.95   366.4    6.9      28.415
2014   10        1     4  20    4.95   366.3    6.9      28.414
2014   10        1     4  25    4.96   366.2    6.9      28.412
2014   10        1     4  31    4.96   366.1    7.0      28.410
2014   10        1     4  36    4.96   366.0    7.0      28.409
2014   10        1     4  42    4.97   365.9    7.0      28.407
2014   10        1     4  47    4.97   365.8    7.0      28.406
2014   10        1     4  52    4.97   365.7    7.0      28.405
2014   10        1     4  58    4.98   365.6    7.0      28.403
2014   10        1     5   3    4.98   365.5    7.0      28.402
2014   10        1     5   8    4.99   365.4    7.0      28.401
2014   10        1     5  14    4.99   365.4    7.0      28.400
2014   10        1     5  19    4.99   365.3    7.0      28.399
2014   10        1     5  25    5.00   365.2    7.1      28.398
2014   10        1     5  30    5.00   365.1    7.1      28.396
2014   10        1     5  35    5.00   365.0    7.1      28.395
2014   10        1     5  41    5.01   364.9    7.1      28.394
2014   10        1     5  46    5.01   364.8    7.1      28.393
2014   10        1     5  52    5.01   364.7    7.1      28.393
2014   10        1     5  57    5.02   364.6    7.1      28.392
2014   10        1     6   2    5.02   364.5    7.1      28.391
2014   10        1     6   8    5.03   364.5    7.1      28.390
2014   10        1     6  13    5.03   364.4    7.1      28.390
2014   10        1     6  18    5.03   364.3    7.1      28.389
2014   10        1     6  24    5.04   364.2    7.2      28.389
2014   10        1     6  29    5.04   364.1    7.2      28.388
2014   10        1     6  35    5.04   364.0    7.2      28.388
2014   10        1     6  40    5.05   363.9    7.2      28.387
2014   10        1     6  45    5.05   363.9    7.2      28.387
2014   10        1     6  51    5.06   363.8    7.2      28.387
2014   10        1     6  56    5.06   363.7    7.2      28.387
2014   10        1     7   2    5.06   363.6    7.2      28.386
2014   10        1     7   7    5.07   363.5    7.2      28.386
2014   10        1     7  12    5.07   363.4    7.2      28.386
2014   10        1     7  18    5.07   363.3    7.3      28.387
2014   10        1     7  23    5.08   363.3    7.3      28.387
2014   10        1     7  28    5.08   363.2    7.3      28.387
2014   10        1     7  34    5.09   363.1    7.3      28.387
2014   10        1     7  39    5.09   363.0    7.3      28.388
2014   10        1     7  45    5.09   362.9    7.3      28.388
2014   10        1     7  50    5.10   362.9    7.3      28.389
2014   10        1     7  55    5.10   362.8    7.3      28.389
2014   10        1     8   1    5.10   362.7    7.3      28.390
2014   10        1     8   6    5.11   362.6    7.3      28.391
2014   10        1     8  12    5.11   362.5    7.3      28.392
2014   10        1     8  17    5.12   362.5    7.4      28.393
2014   10        1     8  22    5.12   362.4    7.4      28.394
2014   10        1     8  28    5.12   362.3    7.4      28.395
2014   10        1     8  33    5.13   362.2    7.4      28.396
2014   10        1     8  39    5.13   362.1    7.4      28.398
2014   10        1     8  44    5.14   362.1    7.4      28.399
2014   10        1     8  49    5.14   362.0    7.4      28.401
2014   10        1     8  55    5.14   361.9    7.4      28.402
2014   10        1     9   0    5.15   361.8    7.4      28.404
2014   10        1     9   5    5.15   361.8    7.4      28.406
2014   10        1     9  11    5.15   361.7    7.4      28.407
2014   10        1     9  16    5.16   361.6    7.5      28.409
2014   10        1     9  22    5.16   361.5    7.5      28.412
2014   10        1     9  27    5.17   361.5    7.5      28.414
2014   10        1     9  32    5.17   361.4    7.5      28.416
2014   10        1     9  38    5.17   361.3    7.5      28.418
2014   10        1     9  43    5.18   361.3    7.5      28.421
2014   10        1     9  49    5.18   361.2    7.5      28.423
2014   10        1     9  54    5.19   361.1    7.5      28.425
2014   10        1     9  59    5.19   361.0    7.5      28.428
2014   10        1    10   5    5.19   361.0    7.5      28.431
2014   10        1    10  10    5.20   360.9    7.5      28.433
2014   10        1    10  15    5.20   360.8    7.6      28.436
2014   10        1    10  21    5.20   360.8    7.6      28.439
2014   10        1    10  26    5.21   360.7    7.6      28.442
2014   10        1    10  32    5.21   360.6    7.6      28.445
2014   10        1    10  37    5.22   360.6    7.6      28.448
2014   10        1    10  42    5.22   360.5    7.6      28.452
2014   10        1    10  48    5.22   360.4    7.6      28.455
2014   10        1    10  53    5.23   360.3    7.6      28.458
2014   10        1    10  59    5.23   360.3    7.6      28.461
2014   10        1    11   4    5.24   360.2    7.6      28.465
2014   10        1    11   9    5.24   360.1    7.6      28.468
2014   10        1    11  15    5.24   360.1    7.7      28.472
2014   10        1    11  20    5.25   360.0    7.7      28.475
2014   10        1    11  25    5.25   359.9    7.7      28.479
2014   10        1    11  31    5.25   359.9    7.7      28.482
2014   10        1    11  36    5.26   359.8    7.7      28.486
2014   10        1    11  42    5.26   359.8    7.7      28.490
2014   10        1    11  47    5.27   359.7    7.7      28.493
2014   10        1    11  52    5.27   359.6    7.7      28.497
2014   10        1    11  58    5.27   359.6    7.7      28.501
2014   10        1    12   3    5.28   359.5    7.7      28.505
2014   10        1    12   9    5.28   359.4    7.7      28.509
2014   10        1    12  14    5.29   359.4    7.7      28.512
2014   10        1    12  19    5.29   359.3    7.8      28.516
2014   10        1    12  25    5.29   359.2    7.8      28.520
2014   10        1    12  30    5.30   359.2    7.8      28.524
2014   10        1    12  35    5.30   359.1    7.8      28.528
2014   10        1    12  41    5.31   359.1    7.8      28.532
2014   10        1    12  46    5.31   359.0    7.8      28.536
2014   10        1    12  52    5.31   358.9    7.8      28.540
2014   10        1    12  57    5.32   358.9    7.8      28.544
2014   10        1    13   2    5.32   358.8    7.8      28.548
2014   10        1    13   8    5.32   358.8    7.8      28.552
2014   10        1    13  13    5.33   358.7    7.8      28.556
2014   10        1    13  19    5.33   358.6    7.8      28.560
2014   10        1    13  24    5.34   358.6    7.9      28.564
2014   10        1    13  29    5.34   358.5    7.9      28.568
2014   10        1    13  35    5.34   358.4    7.9      28.572
2014   10        1    13  40    5.35   358.4    7.9      28.576
2014   10        1    13  46    5.35   358.3    7.9      28.581
2014   10        1    13  51    5.36   358.3    7.9      28.585
2014   10        1    13  56    5.36   358.2    7.9      28.589
2014   10        1    14   2    5.36   358.2    7.9      28.593
2014   10        1    14   7    5.37   358.1    7.9      28.598
2014   10        1    14  12    5.37   358.0    7.9      28.602
2014   10        1    14  18    5.38   358.0    7.9      28.607
2014   10        1    14  23    5.38   357.9    7.9      28.611
2014   10        1    14  29    5.38   357.9    7.9      28.616
2014   10        1    14  34    5.39   357.8    8.0      28.620
2014   10        1    14  39    5.39   357.8    8.0      28.625
2014   10        1    14  45    5.39   357.7    8.0      28.629
2014   10        1    14  50    5.40   357.6    8.0      28.634
2014   10        1    14  56    5.40   357.6    8.0      28.639
2014   10        1    15   1    5.41   357.5    8.0      28.643
2014   10        1    15   6    5.41   357.5    8.0      28.648
2014   10        1    15  12    5.41   357.4    8.0      28.653
2014   10        1    15  17    5.42   357.4    8.0      28.658
2014   10        1    15  22    5.42   357.3    8.0      28.663
2014   10        1    15  28    5.43   357.3    8.0      28.668
2014   10        1    15  33    5.43   357.2    8.0      28.673
2014   10        1    15  39    5.43   357.1    8.0      28.679
2014   10        1    15  44    5.44   357.1    8.1      28.684
2014   10        1    15  49    5.44   357.0    8.1      28.689
2014   10        1    15  55    5.45   357.0    8.1      28.695
2014   10        1    16   0    5.45   356.9    8.1      28.700
2014   10        1    16   6    5.45   356.9    8.1      28.706
2014   10        1    16  11    5.46   356.8    8.1      28.712
2014   10        1    16  16    5.46   356.8    8.1      28.718
2014   10        1    16  22    5.47   356.7    8.1      28.723
2014   10        1    16  27    5.47   356.7    8.1      28.729
2014   10        1    16  32    5.47   356.6    8.1      28.735
2014   10        1    16  38    5.48   356.6    8.1      28.741
2014   10        1    16  43    5.48   356.5    8.1      28.748
2014   10        1    16  49    5.49   356.5    8.1      28.754
2014   10        1    16  54    5.49   356.4    8.1      28.761
2014   10        1    16  59    5.49   356.4    8.2      28.767
2014   10        1    17   5    5.50   356.3    8.2      28.774
2014   10        1    17  10    5.50   356.3    8.2      28.780
2014   10        1    17  16    5.51   356.2    8.2      28.787
2014   10        1    17  21    5.51   356.2    8.2      28.794
2014   10        1    17  26    5.51   356.1    8.2      28.801
2014   10        1    17  32    5.52   356.1    8.2      28.808
2014   10        1    17  37    5.52   356.0    8.2      28.815
2014   10        1    17  42    5.53   356.0    8.2      28.823
2014   10        1    17  48    5.53   356.0    8.2      28.830
2014   10        1    17  53    5.53   355.9    8.2      28.837
2014   10        1    17  59    5.54   355.9    8.2      28.845
2014   10        1    18   4    5.54   355.8    8.2      28.852
2014   10        1    18   9    5.54   355.8    8.3      28.860
2014   10        1    18  15    5.55   355.7    8.3      28.868
2014   10        1    18  20    5.55   355.7    8.3      28.876
2014   10        1    18  26    5.56   355.6    8.3      28.884
2014   10        1    18  31    5.56   355.6    8.3      28.892
2014   10        1    18  36    5.56   355.5    8.3      28.900
2014   10        1    18  42    5.57   355.5    8.3      28.908
2014   10        1    18  47    5.57   355.5    8.3      28.916
2014   10        1    18  53    5.58   355.4    8.3      28.924
2014   10        1    18  58    5.58   355.4    8.3      28.933
2014   10        1    19   3    5.58   355.3    8.3      28.941
2014   10        1    19   9    5.59   355.3    8.3      28.950
2014   10        1    19  14    5.59   355.2    8.3      28.958
2014   10        1    19  19    5.60   355.2    8.3      28.967
2014   10        1    19  25    5.60   355.2    8.4      28.976
2014   10        1    19  30    5.60   355.1    8.4      28.985
2014   10        1    19  36    5.61   355.1    8.4      28.994
2014   10        1    19  41    5.61   355.0    8.4      29.002
2014   10        1    19  46    5.62   355.0    8.4      29.011
2014   10        1    19  52    5.62   355.0    8.4      29.020
2014   10        1    19  57    5.62   354.9    8.4      29.029
2014   10        1    20   3    5.63   354.9    8.4      29.038
2014   10        1    20   8    5.63   354.8    8.4      29.048
2014   10        1    20  13    5.64   354.8    8.4      29.057
2014   10        1    20  19    5.64   354.8    8.4      29.066
2014   10        1    20  24    5.64   354.7    8.4      29.075
2014   10        1    20  29    5.65   354.7    8.4      29.085
2014   10        1    20  35    5.65   354.7    8.4      29.094
2014   10        1    20  40    5.66   354.6    8.4      29.104
2014   10        1    20  46    5.66   354.6    8.5      29.113
2014   10        1    20  51    5.66   354.5    8.5      29.123
2014   10        1    20  56    5.67   354.5    8.5      29.132
2014   10        1    21   2    5.67   354.5    8.5      29.142
2014   10        1    21   7    5.68   354.4    8.5      29.152
2014   10        1    21  13    5.68   354.4    8.5      29.162
2014   10        1    21  18    5.68   354.4    8.5      29.171
2014   10        1    21  23    5.69   354.3    8.5      29.181
2014   10        1    21  29    5.69   354.3    8.5      29.191
2014   10        1    21  34    5.70   354.3    8.5      29.201
2014   10        1    21  39    5.70   354.2    8.5      29.211
2014   10        1    21  45    5.70   354.2    8.5      29.221
2014   10        1    21  50    5.71   354.1    8.5      29.231
2014   10        1    21  56    5.71   354.1    8.5      29.241
2014   10        1    22   1    5.72   354.1    8.5      29.252
2014   10        1    22   6    5.72   354.0    8.6      29.262
2014   10        1    22  12    5.72   354.0    8.6      29.272
2014   10        1    22  17    5.73   354.0    8.6      29.283
2014   10        1    22  23    5.73   353.9    8.6      29.293
2014   10        1    22  28    5.74   353.9    8.6      29.303
2014   10        1    22  33    5.74   353.9    8.6      29.314
2014   10        1    22  39    5.74   353.9    8.6      29.324
2014   10        1    22  44    5.75   353.8    8.6      29.335
2014   10        1    22  50    5.75   353.8    8.6      29.345
2014   10        1    22  55    5.76   353.8    8.6      29.356
2014   10        1    23   0    5.76   353.7    8.6      29.366
2014   10        1    23   6    5.76   353.7    8.6      29.377
2014   10        1    23  11    5.77   353.7    8.6      29.387
2014   10        1    23  16    5.77   353.6    8.6      29.398
2014   10        1    23  22    5.77   353.6    8.6      29.409
2014   10        1    23  27    5.78   353.6    8.6      29.419
2014   10        1    23  33    5.78   353.5    8.7      29.430
2014   10        1    23  38    5.79   353.5    8.7      29.441
2014   10        1    23  43    5.79   353.5    8.7      29.452
2014   10        1    23  49    5.79   353.4    8.7      29.463
2014   10        1    23  54    5.80   353.4    8.7      29.474
2014   10        2    24   0    5.80   353.4    8.7      29.485
