year    month   day   hour  minute  B_enl V_enl   n_enl       T_enl
[year] [month] [day] [hour][minute] [nT]  [km/s]  [cm-3]      [kK]
2014    9       21     0   0    6.63   448.9    7.5      40.909
2014    9       21     0   5    6.63   449.0    7.5      40.948
2014    9       21     0  10    6.64   449.1    7.5      40.987
2014    9       21     0  16    6.65   449.2    7.5      41.028
2014    9       21     0  21    6.65   449.3    7.5      41.068
2014    9       21     0  26    6.66   449.3    7.5      41.110
2014    9       21     0  32    6.66   449.4    7.5      41.152
2014    9       21     0  37    6.67   449.5    7.6      41.195
2014    9       21     0  43    6.68   449.6    7.6      41.239
2014    9       21     0  48    6.68   449.7    7.6      41.284
2014    9       21     0  53    6.69   449.8    7.6      41.330
2014    9       21     0  59    6.70   449.9    7.6      41.376
2014    9       21     1   4    6.70   450.0    7.6      41.424
2014    9       21     1   9    6.71   450.1    7.6      41.473
2014    9       21     1  15    6.72   450.2    7.6      41.523
2014    9       21     1  20    6.72   450.3    7.6      41.575
2014    9       21     1  26    6.73   450.4    7.6      41.626
2014    9       21     1  31    6.74   450.5    7.6      41.678
2014    9       21     1  36    6.74   450.6    7.6      41.731
2014    9       21     1  42    6.75   450.7    7.6      41.784
2014    9       21     1  47    6.76   450.9    7.6      41.839
2014    9       21     1  52    6.76   451.0    7.7      41.895
2014    9       21     1  58    6.77   451.1    7.7      41.952
2014    9       21     2   3    6.78   451.2    7.7      42.010
2014    9       21     2   9    6.78   451.3    7.7      42.069
2014    9       21     2  14    6.79   451.5    7.7      42.130
2014    9       21     2  19    6.80   451.6    7.7      42.191
2014    9       21     2  25    6.80   451.7    7.7      42.253
2014    9       21     2  30    6.81   451.9    7.7      42.314
2014    9       21     2  36    6.82   452.0    7.7      42.374
2014    9       21     2  41    6.82   452.1    7.7      42.434
2014    9       21     2  46    6.83   452.3    7.7      42.493
2014    9       21     2  52    6.84   452.4    7.7      42.553
2014    9       21     2  57    6.84   452.5    7.7      42.612
2014    9       21     3   2    6.85   452.7    7.7      42.671
2014    9       21     3   8    6.86   452.8    7.7      42.729
2014    9       21     3  13    6.86   452.9    7.7      42.788
2014    9       21     3  19    6.87   453.1    7.8      42.846
2014    9       21     3  24    6.87   453.2    7.8      42.905
2014    9       21     3  29    6.88   453.3    7.8      42.965
2014    9       21     3  35    6.89   453.5    7.8      43.025
2014    9       21     3  40    6.89   453.6    7.8      43.085
2014    9       21     3  45    6.90   453.8    7.8      43.145
2014    9       21     3  51    6.91   453.9    7.8      43.206
2014    9       21     3  56    6.91   454.1    7.8      43.268
2014    9       21     4   2    6.92   454.2    7.8      43.330
2014    9       21     4   7    6.92   454.4    7.8      43.391
2014    9       21     4  12    6.93   454.5    7.8      43.453
2014    9       21     4  18    6.94   454.7    7.8      43.514
2014    9       21     4  23    6.94   454.8    7.8      43.576
2014    9       21     4  28    6.95   455.0    7.8      43.637
2014    9       21     4  34    6.96   455.1    7.8      43.699
2014    9       21     4  39    6.96   455.3    7.8      43.760
2014    9       21     4  45    6.97   455.4    7.8      43.822
2014    9       21     4  50    6.97   455.6    7.8      43.884
2014    9       21     4  55    6.98   455.7    7.8      43.947
2014    9       21     5   1    6.99   455.9    7.8      44.010
2014    9       21     5   6    6.99   456.1    7.8      44.073
2014    9       21     5  12    7.00   456.2    7.8      44.137
2014    9       21     5  17    7.00   456.4    7.8      44.200
2014    9       21     5  22    7.01   456.5    7.9      44.264
2014    9       21     5  28    7.01   456.7    7.9      44.330
2014    9       21     5  33    7.02   456.9    7.9      44.395
2014    9       21     5  38    7.03   457.0    7.9      44.461
2014    9       21     5  44    7.03   457.2    7.9      44.528
2014    9       21     5  49    7.04   457.4    7.9      44.594
2014    9       21     5  55    7.04   457.6    7.9      44.662
2014    9       21     6   0    7.05   457.8    7.9      44.728
2014    9       21     6   5    7.05   457.9    7.9      44.794
2014    9       21     6  11    7.06   458.1    7.9      44.859
2014    9       21     6  16    7.06   458.3    7.9      44.923
2014    9       21     6  21    7.07   458.5    7.9      44.986
2014    9       21     6  27    7.07   458.7    7.9      45.048
2014    9       21     6  32    7.08   458.8    7.9      45.109
2014    9       21     6  38    7.08   459.0    7.9      45.169
2014    9       21     6  43    7.09   459.2    7.9      45.228
2014    9       21     6  48    7.09   459.4    7.9      45.286
2014    9       21     6  54    7.10   459.6    7.9      45.344
2014    9       21     6  59    7.10   459.8    7.9      45.401
2014    9       21     7   4    7.11   460.0    7.9      45.457
2014    9       21     7  10    7.11   460.2    7.9      45.512
2014    9       21     7  15    7.11   460.4    7.9      45.567
2014    9       21     7  21    7.12   460.5    7.9      45.621
2014    9       21     7  26    7.12   460.7    7.9      45.675
2014    9       21     7  31    7.13   460.9    7.9      45.728
2014    9       21     7  37    7.13   461.1    7.9      45.781
2014    9       21     7  42    7.14   461.3    7.9      45.833
2014    9       21     7  47    7.14   461.5    7.9      45.885
2014    9       21     7  53    7.15   461.7    7.8      45.937
2014    9       21     7  58    7.15   461.9    7.8      45.988
2014    9       21     8   4    7.15   462.1    7.8      46.039
2014    9       21     8   9    7.16   462.2    7.8      46.090
2014    9       21     8  14    7.16   462.4    7.8      46.141
2014    9       21     8  20    7.17   462.6    7.8      46.191
2014    9       21     8  25    7.17   462.8    7.8      46.242
2014    9       21     8  31    7.18   463.0    7.8      46.292
2014    9       21     8  36    7.18   463.2    7.8      46.342
2014    9       21     8  41    7.19   463.4    7.8      46.393
2014    9       21     8  47    7.19   463.6    7.8      46.443
2014    9       21     8  52    7.19   463.7    7.8      46.494
2014    9       21     8  57    7.20   463.9    7.8      46.545
2014    9       21     9   3    7.20   464.1    7.8      46.597
2014    9       21     9   8    7.21   464.3    7.8      46.650
2014    9       21     9  14    7.21   464.5    7.8      46.703
2014    9       21     9  19    7.22   464.7    7.8      46.756
2014    9       21     9  24    7.22   464.9    7.8      46.811
2014    9       21     9  30    7.23   465.1    7.8      46.867
2014    9       21     9  35    7.23   465.3    7.8      46.924
2014    9       21     9  40    7.24   465.5    7.8      46.982
2014    9       21     9  46    7.24   465.7    7.8      47.042
2014    9       21     9  51    7.25   465.9    7.8      47.102
2014    9       21     9  57    7.25   466.1    7.8      47.165
2014    9       21    10   2    7.26   466.3    7.8      47.227
2014    9       21    10   7    7.26   466.5    7.8      47.290
2014    9       21    10  13    7.27   466.8    7.8      47.354
2014    9       21    10  18    7.27   467.0    7.8      47.418
2014    9       21    10  23    7.28   467.2    7.8      47.482
2014    9       21    10  29    7.28   467.4    7.8      47.547
2014    9       21    10  34    7.29   467.6    7.8      47.613
2014    9       21    10  40    7.29   467.9    7.8      47.680
2014    9       21    10  45    7.30   468.1    7.8      47.747
2014    9       21    10  50    7.30   468.3    7.8      47.816
2014    9       21    10  56    7.31   468.6    7.8      47.884
2014    9       21    11   1    7.31   468.8    7.8      47.953
2014    9       21    11   7    7.32   469.0    7.8      48.023
2014    9       21    11  12    7.32   469.3    7.8      48.093
2014    9       21    11  17    7.32   469.5    7.8      48.162
2014    9       21    11  23    7.33   469.7    7.8      48.231
2014    9       21    11  28    7.33   470.0    7.8      48.299
2014    9       21    11  33    7.34   470.2    7.8      48.367
2014    9       21    11  39    7.34   470.5    7.8      48.435
2014    9       21    11  44    7.35   470.7    7.8      48.503
2014    9       21    11  50    7.35   470.9    7.8      48.570
2014    9       21    11  55    7.35   471.2    7.8      48.637
2014    9       21    12   0    7.36   471.4    7.8      48.705
2014    9       21    12   6    7.36   471.7    7.8      48.772
2014    9       21    12  11    7.37   471.9    7.8      48.840
2014    9       21    12  16    7.37   472.1    7.8      48.907
2014    9       21    12  22    7.37   472.4    7.8      48.975
2014    9       21    12  27    7.38   472.6    7.8      49.042
2014    9       21    12  33    7.38   472.9    7.8      49.109
2014    9       21    12  38    7.39   473.1    7.8      49.178
2014    9       21    12  43    7.39   473.4    7.8      49.246
2014    9       21    12  49    7.39   473.6    7.8      49.315
2014    9       21    12  54    7.40   473.9    7.8      49.384
2014    9       21    12  59    7.40   474.1    7.8      49.454
2014    9       21    13   5    7.40   474.4    7.8      49.524
2014    9       21    13  10    7.41   474.6    7.8      49.595
2014    9       21    13  16    7.41   474.9    7.8      49.664
2014    9       21    13  21    7.41   475.1    7.8      49.733
2014    9       21    13  26    7.42   475.4    7.8      49.802
2014    9       21    13  32    7.42   475.6    7.8      49.870
2014    9       21    13  37    7.42   475.9    7.8      49.938
2014    9       21    13  43    7.43   476.2    7.8      50.005
2014    9       21    13  48    7.43   476.4    7.8      50.072
2014    9       21    13  53    7.43   476.7    7.7      50.138
2014    9       21    13  59    7.43   476.9    7.7      50.203
2014    9       21    14   4    7.44   477.2    7.7      50.269
2014    9       21    14   9    7.44   477.4    7.7      50.332
2014    9       21    14  15    7.44   477.7    7.7      50.396
2014    9       21    14  20    7.44   477.9    7.7      50.458
2014    9       21    14  26    7.45   478.2    7.7      50.520
2014    9       21    14  31    7.45   478.5    7.7      50.581
2014    9       21    14  36    7.45   478.7    7.7      50.642
2014    9       21    14  42    7.46   479.0    7.7      50.702
2014    9       21    14  47    7.46   479.3    7.7      50.761
2014    9       21    14  52    7.46   479.5    7.7      50.820
2014    9       21    14  58    7.46   479.8    7.7      50.879
2014    9       21    15   3    7.47   480.0    7.7      50.937
2014    9       21    15   9    7.47   480.3    7.7      50.995
2014    9       21    15  14    7.47   480.6    7.7      51.053
2014    9       21    15  19    7.47   480.9    7.7      51.111
2014    9       21    15  25    7.48   481.1    7.7      51.168
2014    9       21    15  30    7.48   481.4    7.7      51.224
2014    9       21    15  35    7.48   481.7    7.7      51.280
2014    9       21    15  41    7.48   482.0    7.6      51.336
2014    9       21    15  46    7.49   482.3    7.6      51.391
2014    9       21    15  52    7.49   482.6    7.6      51.446
2014    9       21    15  57    7.49   482.8    7.6      51.500
2014    9       21    16   2    7.50   483.1    7.6      51.554
2014    9       21    16   8    7.50   483.4    7.6      51.607
2014    9       21    16  13    7.50   483.7    7.6      51.661
2014    9       21    16  19    7.50   484.0    7.6      51.714
2014    9       21    16  24    7.51   484.3    7.6      51.767
2014    9       21    16  29    7.51   484.6    7.6      51.820
2014    9       21    16  35    7.51   484.9    7.6      51.873
2014    9       21    16  40    7.51   485.2    7.6      51.925
2014    9       21    16  45    7.52   485.4    7.6      51.978
2014    9       21    16  51    7.52   485.7    7.6      52.032
2014    9       21    16  56    7.52   486.0    7.6      52.086
2014    9       21    17   2    7.52   486.3    7.6      52.139
2014    9       21    17   7    7.53   486.6    7.5      52.193
2014    9       21    17  12    7.53   486.9    7.5      52.248
2014    9       21    17  18    7.53   487.3    7.5      52.302
2014    9       21    17  23    7.53   487.6    7.5      52.356
2014    9       21    17  28    7.54   487.9    7.5      52.410
2014    9       21    17  34    7.54   488.2    7.5      52.464
2014    9       21    17  39    7.54   488.5    7.5      52.518
2014    9       21    17  45    7.54   488.9    7.5      52.572
2014    9       21    17  50    7.54   489.2    7.5      52.626
2014    9       21    17  55    7.55   489.5    7.5      52.679
2014    9       21    18   1    7.55   489.9    7.5      52.732
2014    9       21    18   6    7.55   490.2    7.5      52.785
2014    9       21    18  11    7.55   490.5    7.5      52.837
2014    9       21    18  17    7.55   490.9    7.5      52.888
2014    9       21    18  22    7.55   491.2    7.4      52.938
2014    9       21    18  28    7.56   491.5    7.4      52.989
2014    9       21    18  33    7.56   491.9    7.4      53.038
2014    9       21    18  38    7.56   492.2    7.4      53.087
2014    9       21    18  44    7.56   492.6    7.4      53.136
2014    9       21    18  49    7.56   492.9    7.4      53.184
2014    9       21    18  54    7.56   493.3    7.4      53.233
2014    9       21    19   0    7.56   493.6    7.4      53.281
2014    9       21    19   5    7.56   494.0    7.4      53.328
2014    9       21    19  11    7.57   494.3    7.4      53.376
2014    9       21    19  16    7.57   494.6    7.3      53.423
2014    9       21    19  21    7.57   495.0    7.3      53.470
2014    9       21    19  27    7.57   495.3    7.3      53.517
2014    9       21    19  32    7.57   495.7    7.3      53.563
2014    9       21    19  37    7.57   496.0    7.3      53.609
2014    9       21    19  43    7.57   496.4    7.3      53.655
2014    9       21    19  48    7.57   496.7    7.3      53.700
2014    9       21    19  54    7.57   497.1    7.3      53.745
2014    9       21    19  59    7.57   497.4    7.3      53.789
2014    9       21    20   4    7.57   497.7    7.2      53.832
2014    9       21    20  10    7.57   498.1    7.2      53.875
2014    9       21    20  15    7.57   498.4    7.2      53.917
2014    9       21    20  20    7.57   498.7    7.2      53.958
2014    9       21    20  26    7.57   499.0    7.2      53.998
2014    9       21    20  31    7.57   499.3    7.2      54.038
2014    9       21    20  37    7.57   499.6    7.2      54.077
2014    9       21    20  42    7.57   499.9    7.2      54.115
2014    9       21    20  47    7.57   500.2    7.2      54.154
2014    9       21    20  53    7.57   500.6    7.1      54.193
2014    9       21    20  58    7.57   500.9    7.1      54.231
2014    9       21    21   4    7.57   501.2    7.1      54.270
2014    9       21    21   9    7.57   501.5    7.1      54.308
2014    9       21    21  14    7.57   501.8    7.1      54.346
2014    9       21    21  20    7.57   502.1    7.1      54.383
2014    9       21    21  25    7.57   502.4    7.1      54.420
2014    9       21    21  30    7.57   502.7    7.1      54.456
2014    9       21    21  36    7.57   503.0    7.0      54.490
2014    9       21    21  41    7.57   503.3    7.0      54.524
2014    9       21    21  47    7.57   503.7    7.0      54.556
2014    9       21    21  52    7.57   504.0    7.0      54.587
2014    9       21    21  57    7.56   504.3    7.0      54.615
2014    9       21    22   3    7.56   504.6    7.0      54.643
2014    9       21    22   8    7.56   504.9    7.0      54.672
2014    9       21    22  13    7.56   505.3    7.0      54.700
2014    9       21    22  19    7.56   505.6    6.9      54.727
2014    9       21    22  24    7.56   505.9    6.9      54.752
2014    9       21    22  30    7.56   506.2    6.9      54.776
2014    9       21    22  35    7.56   506.6    6.9      54.798
2014    9       21    22  40    7.56   506.9    6.9      54.819
2014    9       21    22  46    7.56   507.2    6.9      54.837
2014    9       21    22  51    7.55   507.4    6.9      54.852
2014    9       21    22  56    7.55   507.7    6.9      54.866
2014    9       21    23   2    7.55   507.9    6.8      54.881
2014    9       21    23   7    7.55   508.2    6.8      54.896
2014    9       21    23  13    7.55   508.5    6.8      54.912
2014    9       21    23  18    7.55   508.7    6.8      54.929
2014    9       21    23  23    7.55   509.0    6.8      54.946
2014    9       21    23  29    7.55   509.2    6.8      54.964
2014    9       21    23  34    7.55   509.5    6.8      54.982
2014    9       21    23  39    7.54   509.7    6.8      55.002
2014    9       21    23  45    7.54   510.0    6.7      55.022
2014    9       21    23  50    7.54   510.3    6.7      55.043
2014    9       21    23  56    7.54   510.5    6.7      55.065
2014    9       22     0   1    7.54   510.8    6.7      55.089
2014    9       22     0   6    7.54   511.1    6.7      55.113
2014    9       22     0  12    7.54   511.4    6.7      55.138
2014    9       22     0  17    7.54   511.7    6.7      55.163
2014    9       22     0  23    7.54   512.0    6.7      55.187
2014    9       22     0  28    7.54   512.3    6.7      55.212
2014    9       22     0  33    7.54   512.6    6.7      55.234
2014    9       22     0  39    7.53   512.9    6.6      55.254
2014    9       22     0  44    7.53   513.2    6.6      55.271
2014    9       22     0  49    7.53   513.5    6.6      55.287
2014    9       22     0  55    7.53   513.8    6.6      55.302
2014    9       22     1   0    7.53   514.1    6.6      55.315
2014    9       22     1   6    7.53   514.4    6.6      55.327
2014    9       22     1  11    7.53   514.7    6.6      55.337
2014    9       22     1  16    7.52   515.0    6.6      55.347
2014    9       22     1  22    7.52   515.3    6.6      55.357
2014    9       22     1  27    7.52   515.6    6.5      55.366
2014    9       22     1  32    7.52   515.9    6.5      55.375
2014    9       22     1  38    7.52   516.2    6.5      55.383
2014    9       22     1  43    7.51   516.5    6.5      55.391
2014    9       22     1  49    7.51   516.8    6.5      55.398
2014    9       22     1  54    7.51   517.1    6.5      55.405
2014    9       22     1  59    7.51   517.4    6.5      55.411
2014    9       22     2   5    7.50   517.7    6.5      55.417
2014    9       22     2  10    7.50   518.0    6.4      55.422
2014    9       22     2  15    7.50   518.3    6.4      55.427
2014    9       22     2  21    7.50   518.6    6.4      55.432
2014    9       22     2  26    7.49   518.9    6.4      55.437
2014    9       22     2  32    7.49   519.2    6.4      55.443
2014    9       22     2  37    7.49   519.5    6.4      55.448
2014    9       22     2  42    7.49   519.7    6.4      55.453
2014    9       22     2  48    7.48   520.0    6.4      55.459
2014    9       22     2  53    7.48   520.3    6.3      55.464
2014    9       22     2  58    7.48   520.6    6.3      55.469
2014    9       22     3   4    7.48   520.9    6.3      55.473
2014    9       22     3   9    7.47   521.2    6.3      55.476
2014    9       22     3  15    7.47   521.5    6.3      55.478
2014    9       22     3  20    7.47   521.8    6.3      55.478
2014    9       22     3  25    7.46   522.1    6.3      55.477
2014    9       22     3  31    7.46   522.4    6.3      55.475
2014    9       22     3  36    7.46   522.6    6.2      55.472
2014    9       22     3  41    7.45   522.9    6.2      55.468
2014    9       22     3  47    7.45   523.1    6.2      55.462
2014    9       22     3  52    7.45   523.4    6.2      55.456
2014    9       22     3  58    7.44   523.6    6.2      55.450
2014    9       22     4   3    7.44   523.9    6.2      55.443
2014    9       22     4   8    7.44   524.1    6.2      55.436
2014    9       22     4  14    7.43   524.3    6.2      55.428
2014    9       22     4  19    7.43   524.6    6.1      55.419
2014    9       22     4  25    7.43   524.8    6.1      55.410
2014    9       22     4  30    7.42   525.1    6.1      55.401
2014    9       22     4  35    7.42   525.3    6.1      55.390
2014    9       22     4  41    7.42   525.5    6.1      55.380
2014    9       22     4  46    7.41   525.8    6.1      55.370
2014    9       22     4  51    7.41   526.0    6.1      55.359
2014    9       22     4  57    7.41   526.3    6.1      55.347
2014    9       22     5   2    7.40   526.5    6.0      55.334
2014    9       22     5   8    7.40   526.8    6.0      55.321
2014    9       22     5  13    7.40   527.0    6.0      55.309
2014    9       22     5  18    7.39   527.3    6.0      55.298
2014    9       22     5  24    7.39   527.6    6.0      55.286
2014    9       22     5  29    7.39   527.8    6.0      55.273
2014    9       22     5  34    7.38   528.0    6.0      55.258
2014    9       22     5  40    7.38   528.3    6.0      55.243
2014    9       22     5  45    7.38   528.5    5.9      55.228
2014    9       22     5  51    7.37   528.7    5.9      55.209
2014    9       22     5  56    7.37   528.8    5.9      55.189
2014    9       22     6   1    7.37   529.0    5.9      55.168
2014    9       22     6   7    7.36   529.2    5.9      55.148
2014    9       22     6  12    7.36   529.3    5.9      55.130
2014    9       22     6  17    7.36   529.4    5.9      55.114
2014    9       22     6  23    7.35   529.6    5.9      55.101
2014    9       22     6  28    7.35   529.7    5.9      55.088
2014    9       22     6  34    7.35   529.9    5.9      55.077
2014    9       22     6  39    7.35   530.0    5.9      55.068
2014    9       22     6  44    7.34   530.1    5.8      55.062
2014    9       22     6  50    7.34   530.3    5.8      55.058
2014    9       22     6  55    7.34   530.4    5.8      55.055
2014    9       22     7   0    7.33   530.6    5.8      55.055
2014    9       22     7   6    7.33   530.8    5.8      55.058
2014    9       22     7  11    7.33   531.0    5.8      55.062
2014    9       22     7  17    7.33   531.2    5.8      55.068
2014    9       22     7  22    7.32   531.3    5.8      55.073
2014    9       22     7  27    7.32   531.5    5.8      55.078
2014    9       22     7  33    7.32   531.7    5.8      55.082
2014    9       22     7  38    7.32   531.9    5.8      55.084
2014    9       22     7  43    7.31   532.1    5.8      55.083
2014    9       22     7  49    7.31   532.3    5.8      55.080
2014    9       22     7  54    7.31   532.5    5.8      55.075
2014    9       22     8   0    7.31   532.7    5.7      55.069
2014    9       22     8   5    7.30   532.8    5.7      55.062
2014    9       22     8  10    7.30   533.0    5.7      55.053
2014    9       22     8  16    7.30   533.2    5.7      55.043
2014    9       22     8  21    7.29   533.4    5.7      55.033
2014    9       22     8  26    7.29   533.6    5.7      55.023
2014    9       22     8  32    7.29   533.7    5.7      55.012
2014    9       22     8  37    7.28   533.9    5.7      55.002
2014    9       22     8  43    7.28   534.1    5.7      54.991
2014    9       22     8  48    7.28   534.3    5.7      54.980
2014    9       22     8  53    7.27   534.5    5.7      54.968
2014    9       22     8  59    7.27   534.6    5.7      54.956
2014    9       22     9   4    7.27   534.8    5.6      54.944
2014    9       22     9  10    7.26   535.0    5.6      54.931
2014    9       22     9  15    7.26   535.1    5.6      54.917
2014    9       22     9  20    7.26   535.3    5.6      54.903
2014    9       22     9  26    7.25   535.5    5.6      54.889
2014    9       22     9  31    7.25   535.6    5.6      54.875
2014    9       22     9  36    7.25   535.8    5.6      54.861
2014    9       22     9  42    7.24   535.9    5.6      54.848
2014    9       22     9  47    7.24   536.1    5.6      54.834
2014    9       22     9  53    7.24   536.2    5.6      54.821
2014    9       22     9  58    7.23   536.4    5.6      54.808
2014    9       22    10   3    7.23   536.6    5.6      54.795
2014    9       22    10   9    7.23   536.7    5.6      54.782
2014    9       22    10  14    7.23   536.9    5.5      54.768
2014    9       22    10  19    7.22   537.1    5.5      54.755
2014    9       22    10  25    7.22   537.2    5.5      54.741
2014    9       22    10  30    7.22   537.4    5.5      54.727
2014    9       22    10  36    7.21   537.5    5.5      54.713
2014    9       22    10  41    7.21   537.7    5.5      54.699
2014    9       22    10  46    7.21   537.8    5.5      54.684
2014    9       22    10  52    7.20   538.0    5.5      54.671
2014    9       22    10  57    7.20   538.1    5.5      54.657
2014    9       22    11   2    7.20   538.3    5.5      54.644
2014    9       22    11   8    7.19   538.4    5.5      54.630
2014    9       22    11  13    7.19   538.5    5.5      54.618
2014    9       22    11  19    7.19   538.7    5.5      54.605
2014    9       22    11  24    7.18   538.8    5.5      54.594
2014    9       22    11  29    7.18   539.0    5.5      54.583
2014    9       22    11  35    7.18   539.1    5.4      54.572
2014    9       22    11  40    7.18   539.2    5.4      54.562
2014    9       22    11  45    7.17   539.4    5.4      54.552
2014    9       22    11  51    7.17   539.5    5.4      54.543
2014    9       22    11  56    7.17   539.7    5.4      54.535
2014    9       22    12   2    7.16   539.8    5.4      54.526
2014    9       22    12   7    7.16   539.9    5.4      54.519
2014    9       22    12  12    7.16   540.1    5.4      54.512
2014    9       22    12  18    7.16   540.2    5.4      54.505
2014    9       22    12  23    7.15   540.4    5.4      54.498
2014    9       22    12  28    7.15   540.5    5.4      54.492
2014    9       22    12  34    7.15   540.6    5.4      54.485
2014    9       22    12  39    7.15   540.8    5.4      54.480
2014    9       22    12  45    7.14   540.9    5.4      54.474
2014    9       22    12  50    7.14   541.0    5.4      54.469
2014    9       22    12  55    7.14   541.1    5.4      54.465
2014    9       22    13   1    7.14   541.2    5.4      54.461
2014    9       22    13   6    7.13   541.4    5.4      54.458
2014    9       22    13  12    7.13   541.5    5.3      54.456
2014    9       22    13  17    7.13   541.6    5.3      54.455
2014    9       22    13  22    7.13   541.7    5.3      54.455
2014    9       22    13  28    7.12   541.8    5.3      54.457
2014    9       22    13  33    7.12   541.9    5.3      54.460
2014    9       22    13  38    7.12   542.0    5.3      54.464
2014    9       22    13  44    7.12   542.1    5.3      54.468
2014    9       22    13  49    7.12   542.2    5.3      54.474
2014    9       22    13  55    7.11   542.3    5.3      54.482
2014    9       22    14   0    7.11   542.4    5.3      54.490
2014    9       22    14   5    7.11   542.6    5.3      54.500
2014    9       22    14  11    7.11   542.7    5.3      54.511
2014    9       22    14  16    7.11   542.8    5.3      54.521
2014    9       22    14  21    7.11   542.9    5.3      54.533
2014    9       22    14  27    7.10   543.1    5.3      54.544
2014    9       22    14  32    7.10   543.2    5.3      54.555
2014    9       22    14  38    7.10   543.3    5.3      54.565
2014    9       22    14  43    7.10   543.4    5.3      54.573
2014    9       22    14  48    7.10   543.6    5.3      54.581
2014    9       22    14  54    7.10   543.7    5.3      54.587
2014    9       22    14  59    7.09   543.8    5.3      54.593
2014    9       22    15   4    7.09   544.0    5.3      54.598
2014    9       22    15  10    7.09   544.1    5.3      54.602
2014    9       22    15  15    7.09   544.2    5.3      54.605
2014    9       22    15  21    7.09   544.4    5.3      54.608
2014    9       22    15  26    7.08   544.5    5.3      54.610
2014    9       22    15  31    7.08   544.6    5.3      54.611
2014    9       22    15  37    7.08   544.7    5.3      54.612
2014    9       22    15  42    7.08   544.9    5.3      54.613
2014    9       22    15  47    7.08   545.0    5.2      54.614
2014    9       22    15  53    7.07   545.1    5.2      54.614
2014    9       22    15  58    7.07   545.3    5.2      54.614
2014    9       22    16   4    7.07   545.4    5.2      54.614
2014    9       22    16   9    7.07   545.5    5.2      54.614
2014    9       22    16  14    7.07   545.6    5.2      54.613
2014    9       22    16  20    7.06   545.8    5.2      54.612
2014    9       22    16  25    7.06   545.9    5.2      54.612
2014    9       22    16  31    7.06   546.0    5.2      54.611
2014    9       22    16  36    7.06   546.1    5.2      54.610
2014    9       22    16  41    7.06   546.3    5.2      54.610
2014    9       22    16  47    7.06   546.4    5.2      54.609
2014    9       22    16  52    7.05   546.5    5.2      54.609
2014    9       22    16  57    7.05   546.7    5.2      54.609
2014    9       22    17   3    7.05   546.8    5.2      54.609
2014    9       22    17   8    7.05   546.9    5.2      54.609
2014    9       22    17  14    7.05   547.0    5.2      54.610
2014    9       22    17  19    7.05   547.2    5.2      54.611
2014    9       22    17  24    7.04   547.3    5.2      54.612
2014    9       22    17  30    7.04   547.4    5.2      54.614
2014    9       22    17  35    7.04   547.5    5.2      54.617
2014    9       22    17  40    7.04   547.7    5.2      54.620
2014    9       22    17  46    7.04   547.8    5.2      54.624
2014    9       22    17  51    7.04   547.9    5.2      54.628
2014    9       22    17  57    7.03   548.1    5.2      54.633
2014    9       22    18   2    7.03   548.2    5.2      54.638
2014    9       22    18   7    7.03   548.3    5.1      54.644
2014    9       22    18  13    7.03   548.4    5.1      54.650
2014    9       22    18  18    7.03   548.6    5.1      54.656
2014    9       22    18  23    7.03   548.7    5.1      54.662
2014    9       22    18  29    7.02   548.8    5.1      54.669
2014    9       22    18  34    7.02   549.0    5.1      54.677
2014    9       22    18  40    7.02   549.1    5.1      54.685
2014    9       22    18  45    7.02   549.2    5.1      54.693
2014    9       22    18  50    7.02   549.3    5.1      54.702
2014    9       22    18  56    7.02   549.5    5.1      54.710
2014    9       22    19   1    7.02   549.6    5.1      54.720
2014    9       22    19   6    7.02   549.7    5.1      54.729
2014    9       22    19  12    7.01   549.9    5.1      54.739
2014    9       22    19  17    7.01   550.0    5.1      54.750
2014    9       22    19  23    7.01   550.1    5.1      54.760
2014    9       22    19  28    7.01   550.2    5.1      54.771
2014    9       22    19  33    7.01   550.4    5.1      54.782
2014    9       22    19  39    7.01   550.5    5.1      54.794
2014    9       22    19  44    7.01   550.6    5.1      54.806
2014    9       22    19  50    7.00   550.8    5.1      54.818
2014    9       22    19  55    7.00   550.9    5.1      54.830
2014    9       22    20   0    7.00   551.0    5.1      54.843
2014    9       22    20   6    7.00   551.1    5.1      54.856
2014    9       22    20  11    7.00   551.3    5.1      54.870
2014    9       22    20  16    7.00   551.4    5.1      54.883
2014    9       22    20  22    7.00   551.5    5.1      54.897
2014    9       22    20  27    7.00   551.7    5.1      54.911
2014    9       22    20  33    7.00   551.8    5.1      54.925
2014    9       22    20  38    6.99   551.9    5.1      54.940
2014    9       22    20  43    6.99   552.1    5.1      54.955
2014    9       22    20  49    6.99   552.2    5.1      54.969
2014    9       22    20  54    6.99   552.3    5.0      54.984
2014    9       22    20  59    6.99   552.5    5.0      54.999
2014    9       22    21   5    6.99   552.6    5.0      55.014
2014    9       22    21  10    6.99   552.7    5.0      55.029
2014    9       22    21  16    6.99   552.9    5.0      55.043
2014    9       22    21  21    6.99   553.0    5.0      55.057
2014    9       22    21  26    6.98   553.1    5.0      55.071
2014    9       22    21  32    6.98   553.2    5.0      55.084
2014    9       22    21  37    6.98   553.4    5.0      55.098
2014    9       22    21  42    6.98   553.5    5.0      55.111
2014    9       22    21  48    6.98   553.6    5.0      55.123
2014    9       22    21  53    6.98   553.8    5.0      55.135
2014    9       22    21  59    6.98   553.9    5.0      55.147
2014    9       22    22   4    6.98   554.0    5.0      55.158
2014    9       22    22   9    6.98   554.2    5.0      55.169
2014    9       22    22  15    6.97   554.3    5.0      55.179
2014    9       22    22  20    6.97   554.4    5.0      55.189
2014    9       22    22  26    6.97   554.6    5.0      55.199
2014    9       22    22  31    6.97   554.7    5.0      55.208
2014    9       22    22  36    6.97   554.8    5.0      55.217
2014    9       22    22  42    6.97   554.9    5.0      55.225
2014    9       22    22  47    6.97   555.1    5.0      55.233
2014    9       22    22  52    6.97   555.2    5.0      55.241
2014    9       22    22  58    6.97   555.3    5.0      55.249
2014    9       22    23   3    6.96   555.5    5.0      55.256
2014    9       22    23   9    6.96   555.6    5.0      55.263
2014    9       22    23  14    6.96   555.7    5.0      55.270
2014    9       22    23  19    6.96   555.8    5.0      55.277
2014    9       22    23  25    6.96   556.0    5.0      55.283
2014    9       22    23  30    6.96   556.1    5.0      55.290
2014    9       22    23  35    6.96   556.2    5.0      55.297
2014    9       22    23  41    6.96   556.4    4.9      55.303
2014    9       22    23  46    6.96   556.5    4.9      55.310
2014    9       22    23  52    6.95   556.6    4.9      55.316
2014    9       22    23  57    6.95   556.7    4.9      55.323
2014    9       23     0   2    6.95   556.9    4.9      55.330
2014    9       23     0   8    6.95   557.0    4.9      55.338
2014    9       23     0  13    6.95   557.1    4.9      55.346
2014    9       23     0  19    6.95   557.3    4.9      55.354
2014    9       23     0  24    6.95   557.4    4.9      55.363
2014    9       23     0  29    6.95   557.5    4.9      55.372
2014    9       23     0  35    6.95   557.6    4.9      55.382
2014    9       23     0  40    6.95   557.8    4.9      55.393
2014    9       23     0  45    6.95   557.9    4.9      55.404
2014    9       23     0  51    6.94   558.0    4.9      55.417
2014    9       23     0  56    6.94   558.2    4.9      55.430
2014    9       23     1   2    6.94   558.3    4.9      55.444
2014    9       23     1   7    6.94   558.5    4.9      55.459
2014    9       23     1  12    6.94   558.6    4.9      55.474
2014    9       23     1  18    6.94   558.7    4.9      55.491
2014    9       23     1  23    6.94   558.9    4.9      55.508
2014    9       23     1  28    6.94   559.0    4.9      55.525
2014    9       23     1  34    6.94   559.1    4.9      55.544
2014    9       23     1  39    6.94   559.3    4.9      55.563
2014    9       23     1  45    6.94   559.4    4.9      55.582
2014    9       23     1  50    6.94   559.6    4.9      55.602
2014    9       23     1  55    6.94   559.7    4.9      55.622
2014    9       23     2   1    6.94   559.9    4.9      55.642
2014    9       23     2   6    6.93   560.0    4.9      55.662
2014    9       23     2  11    6.93   560.1    4.9      55.683
2014    9       23     2  17    6.93   560.3    4.9      55.704
2014    9       23     2  22    6.93   560.4    4.9      55.724
2014    9       23     2  28    6.93   560.6    4.9      55.745
2014    9       23     2  33    6.93   560.7    4.9      55.766
2014    9       23     2  38    6.93   560.8    4.9      55.787
2014    9       23     2  44    6.93   561.0    4.9      55.808
2014    9       23     2  49    6.93   561.1    4.9      55.830
2014    9       23     2  55    6.93   561.3    4.9      55.851
2014    9       23     3   0    6.93   561.4    4.9      55.873
2014    9       23     3   5    6.93   561.6    4.9      55.895
2014    9       23     3  11    6.93   561.7    4.9      55.917
2014    9       23     3  16    6.93   561.9    4.9      55.940
2014    9       23     3  21    6.93   562.0    4.9      55.962
2014    9       23     3  27    6.92   562.1    4.8      55.985
2014    9       23     3  32    6.92   562.3    4.8      56.008
2014    9       23     3  38    6.92   562.4    4.8      56.031
2014    9       23     3  43    6.92   562.6    4.8      56.055
2014    9       23     3  48    6.92   562.7    4.8      56.078
2014    9       23     3  54    6.92   562.9    4.8      56.102
2014    9       23     3  59    6.92   563.0    4.8      56.126
2014    9       23     4   4    6.92   563.2    4.8      56.149
2014    9       23     4  10    6.92   563.3    4.8      56.171
2014    9       23     4  15    6.92   563.5    4.8      56.193
2014    9       23     4  21    6.92   563.6    4.8      56.214
2014    9       23     4  26    6.92   563.8    4.8      56.235
2014    9       23     4  31    6.92   563.9    4.8      56.255
2014    9       23     4  37    6.92   564.0    4.8      56.274
2014    9       23     4  42    6.91   564.2    4.8      56.293
2014    9       23     4  47    6.91   564.3    4.8      56.312
2014    9       23     4  53    6.91   564.5    4.8      56.330
2014    9       23     4  58    6.91   564.6    4.8      56.348
2014    9       23     5   4    6.91   564.8    4.8      56.365
2014    9       23     5   9    6.91   564.9    4.8      56.382
2014    9       23     5  14    6.91   565.1    4.8      56.399
2014    9       23     5  20    6.91   565.2    4.8      56.415
2014    9       23     5  25    6.91   565.3    4.8      56.431
2014    9       23     5  31    6.91   565.5    4.8      56.446
2014    9       23     5  36    6.91   565.6    4.8      56.462
2014    9       23     5  41    6.91   565.8    4.8      56.477
2014    9       23     5  47    6.91   565.9    4.8      56.491
2014    9       23     5  52    6.90   566.1    4.8      56.506
2014    9       23     5  57    6.90   566.2    4.8      56.520
2014    9       23     6   3    6.90   566.3    4.8      56.534
2014    9       23     6   8    6.90   566.5    4.8      56.547
2014    9       23     6  14    6.90   566.6    4.8      56.561
2014    9       23     6  19    6.90   566.8    4.8      56.574
2014    9       23     6  24    6.90   566.9    4.8      56.587
2014    9       23     6  30    6.90   567.1    4.7      56.601
2014    9       23     6  35    6.90   567.2    4.7      56.614
2014    9       23     6  40    6.90   567.4    4.7      56.627
2014    9       23     6  46    6.90   567.5    4.7      56.640
2014    9       23     6  51    6.90   567.6    4.7      56.653
2014    9       23     6  57    6.90   567.8    4.7      56.666
2014    9       23     7   2    6.90   567.9    4.7      56.679
2014    9       23     7   7    6.90   568.1    4.7      56.693
2014    9       23     7  13    6.90   568.2    4.7      56.706
2014    9       23     7  18    6.89   568.4    4.7      56.720
2014    9       23     7  23    6.89   568.5    4.7      56.735
2014    9       23     7  29    6.89   568.7    4.7      56.749
2014    9       23     7  34    6.89   568.8    4.7      56.764
2014    9       23     7  40    6.89   569.0    4.7      56.779
2014    9       23     7  45    6.89   569.1    4.7      56.795
2014    9       23     7  50    6.89   569.3    4.7      56.811
2014    9       23     7  56    6.89   569.4    4.7      56.827
2014    9       23     8   1    6.89   569.6    4.7      56.845
2014    9       23     8   6    6.89   569.7    4.7      56.862
2014    9       23     8  12    6.89   569.9    4.7      56.881
2014    9       23     8  17    6.89   570.0    4.7      56.901
2014    9       23     8  23    6.89   570.2    4.7      56.921
2014    9       23     8  28    6.89   570.3    4.7      56.942
2014    9       23     8  33    6.89   570.5    4.7      56.964
2014    9       23     8  39    6.89   570.7    4.7      56.987
2014    9       23     8  44    6.89   570.8    4.7      57.011
2014    9       23     8  50    6.89   571.0    4.7      57.036
2014    9       23     8  55    6.89   571.1    4.7      57.063
2014    9       23     9   0    6.89   571.3    4.7      57.089
2014    9       23     9   6    6.89   571.5    4.7      57.116
2014    9       23     9  11    6.88   571.6    4.7      57.144
2014    9       23     9  16    6.88   571.8    4.7      57.172
2014    9       23     9  22    6.88   572.0    4.7      57.200
2014    9       23     9  27    6.88   572.1    4.7      57.228
2014    9       23     9  33    6.88   572.3    4.7      57.256
2014    9       23     9  38    6.88   572.5    4.7      57.284
2014    9       23     9  43    6.88   572.6    4.7      57.312
2014    9       23     9  49    6.88   572.8    4.7      57.340
2014    9       23     9  54    6.88   573.0    4.7      57.368
2014    9       23     9  59    6.88   573.2    4.7      57.396
2014    9       23    10   5    6.88   573.3    4.7      57.423
2014    9       23    10  10    6.88   573.5    4.7      57.450
2014    9       23    10  16    6.88   573.7    4.7      57.477
2014    9       23    10  21    6.88   573.8    4.7      57.505
2014    9       23    10  26    6.88   574.0    4.7      57.531
2014    9       23    10  32    6.88   574.2    4.6      57.558
2014    9       23    10  37    6.88   574.3    4.6      57.585
2014    9       23    10  42    6.88   574.5    4.6      57.612
2014    9       23    10  48    6.88   574.7    4.6      57.639
2014    9       23    10  53    6.88   574.8    4.6      57.666
2014    9       23    10  59    6.88   575.0    4.6      57.693
2014    9       23    11   4    6.87   575.2    4.6      57.719
2014    9       23    11   9    6.87   575.4    4.6      57.745
2014    9       23    11  15    6.87   575.5    4.6      57.771
2014    9       23    11  20    6.87   575.7    4.6      57.796
2014    9       23    11  25    6.87   575.9    4.6      57.821
2014    9       23    11  31    6.87   576.0    4.6      57.846
2014    9       23    11  36    6.87   576.2    4.6      57.870
2014    9       23    11  42    6.87   576.4    4.6      57.895
2014    9       23    11  47    6.87   576.5    4.6      57.919
2014    9       23    11  52    6.87   576.7    4.6      57.943
2014    9       23    11  58    6.87   576.9    4.6      57.967
2014    9       23    12   3    6.87   577.1    4.6      57.990
2014    9       23    12   9    6.87   577.2    4.6      58.014
2014    9       23    12  14    6.87   577.4    4.6      58.037
2014    9       23    12  19    6.87   577.6    4.6      58.060
2014    9       23    12  25    6.87   577.7    4.6      58.083
2014    9       23    12  30    6.87   577.9    4.6      58.106
2014    9       23    12  35    6.87   578.1    4.6      58.129
2014    9       23    12  41    6.86   578.3    4.6      58.152
2014    9       23    12  46    6.86   578.4    4.6      58.174
2014    9       23    12  52    6.86   578.6    4.6      58.197
2014    9       23    12  57    6.86   578.8    4.6      58.219
2014    9       23    13   2    6.86   579.0    4.6      58.241
2014    9       23    13   8    6.86   579.1    4.6      58.263
2014    9       23    13  13    6.86   579.3    4.6      58.285
2014    9       23    13  18    6.86   579.5    4.6      58.307
2014    9       23    13  24    6.86   579.7    4.6      58.329
2014    9       23    13  29    6.86   579.8    4.6      58.351
2014    9       23    13  35    6.86   580.0    4.5      58.373
2014    9       23    13  40    6.86   580.2    4.5      58.395
2014    9       23    13  45    6.86   580.4    4.5      58.418
2014    9       23    13  51    6.86   580.6    4.5      58.441
2014    9       23    13  56    6.86   580.7    4.5      58.464
2014    9       23    14   1    6.86   580.9    4.5      58.487
2014    9       23    14   7    6.85   581.1    4.5      58.510
2014    9       23    14  12    6.85   581.3    4.5      58.534
2014    9       23    14  18    6.85   581.5    4.5      58.558
2014    9       23    14  23    6.85   581.7    4.5      58.582
2014    9       23    14  28    6.85   581.9    4.5      58.607
2014    9       23    14  34    6.85   582.0    4.5      58.633
2014    9       23    14  39    6.85   582.2    4.5      58.659
2014    9       23    14  44    6.85   582.4    4.5      58.685
2014    9       23    14  50    6.85   582.6    4.5      58.711
2014    9       23    14  55    6.85   582.8    4.5      58.736
2014    9       23    15   1    6.85   583.0    4.5      58.762
2014    9       23    15   6    6.85   583.2    4.5      58.788
2014    9       23    15  11    6.85   583.4    4.5      58.813
2014    9       23    15  17    6.85   583.6    4.5      58.839
2014    9       23    15  22    6.85   583.7    4.5      58.864
2014    9       23    15  27    6.85   583.9    4.5      58.889
2014    9       23    15  33    6.85   584.1    4.5      58.915
2014    9       23    15  38    6.84   584.3    4.5      58.941
2014    9       23    15  44    6.84   584.5    4.5      58.967
2014    9       23    15  49    6.84   584.7    4.5      58.993
2014    9       23    15  54    6.84   584.9    4.5      59.019
2014    9       23    16   0    6.84   585.1    4.5      59.046
2014    9       23    16   5    6.84   585.3    4.5      59.074
2014    9       23    16  11    6.84   585.5    4.5      59.102
2014    9       23    16  16    6.84   585.7    4.5      59.130
2014    9       23    16  21    6.84   585.9    4.5      59.159
2014    9       23    16  27    6.84   586.1    4.5      59.188
2014    9       23    16  32    6.84   586.2    4.5      59.218
2014    9       23    16  37    6.84   586.4    4.5      59.247
2014    9       23    16  43    6.84   586.6    4.5      59.277
2014    9       23    16  48    6.84   586.8    4.4      59.307
2014    9       23    16  54    6.84   587.0    4.4      59.338
2014    9       23    16  59    6.84   587.2    4.4      59.369
2014    9       23    17   4    6.84   587.4    4.4      59.400
2014    9       23    17  10    6.84   587.6    4.4      59.432
2014    9       23    17  15    6.84   587.8    4.4      59.465
2014    9       23    17  20    6.84   588.0    4.4      59.499
2014    9       23    17  26    6.84   588.2    4.4      59.532
2014    9       23    17  31    6.83   588.5    4.4      59.567
2014    9       23    17  37    6.83   588.7    4.4      59.602
2014    9       23    17  42    6.83   588.9    4.4      59.638
2014    9       23    17  47    6.83   589.1    4.4      59.673
2014    9       23    17  53    6.83   589.3    4.4      59.709
2014    9       23    17  58    6.83   589.5    4.4      59.743
2014    9       23    18   3    6.83   589.8    4.4      59.777
2014    9       23    18   9    6.83   590.0    4.4      59.810
2014    9       23    18  14    6.83   590.2    4.4      59.842
2014    9       23    18  20    6.83   590.4    4.4      59.873
2014    9       23    18  25    6.83   590.7    4.4      59.903
2014    9       23    18  30    6.83   590.9    4.4      59.933
2014    9       23    18  36    6.83   591.1    4.4      59.961
2014    9       23    18  41    6.83   591.3    4.4      59.989
2014    9       23    18  46    6.83   591.5    4.4      60.017
2014    9       23    18  52    6.83   591.8    4.4      60.043
2014    9       23    18  57    6.83   592.0    4.4      60.069
2014    9       23    19   3    6.83   592.2    4.4      60.094
2014    9       23    19   8    6.83   592.4    4.4      60.119
2014    9       23    19  13    6.83   592.6    4.4      60.143
2014    9       23    19  19    6.83   592.8    4.4      60.167
2014    9       23    19  24    6.82   593.1    4.4      60.190
2014    9       23    19  30    6.82   593.3    4.4      60.213
2014    9       23    19  35    6.82   593.5    4.3      60.236
2014    9       23    19  40    6.82   593.7    4.3      60.258
2014    9       23    19  46    6.82   593.9    4.3      60.280
2014    9       23    19  51    6.82   594.1    4.3      60.302
2014    9       23    19  56    6.82   594.4    4.3      60.323
2014    9       23    20   2    6.82   594.6    4.3      60.345
2014    9       23    20   7    6.82   594.8    4.3      60.366
2014    9       23    20  13    6.82   595.0    4.3      60.388
2014    9       23    20  18    6.82   595.2    4.3      60.409
2014    9       23    20  23    6.82   595.4    4.3      60.431
2014    9       23    20  29    6.82   595.7    4.3      60.452
2014    9       23    20  34    6.81   595.9    4.3      60.474
2014    9       23    20  39    6.81   596.1    4.3      60.496
2014    9       23    20  45    6.81   596.3    4.3      60.518
2014    9       23    20  50    6.81   596.5    4.3      60.540
2014    9       23    20  56    6.81   596.7    4.3      60.563
2014    9       23    21   1    6.81   596.9    4.3      60.586
2014    9       23    21   6    6.81   597.2    4.3      60.610
2014    9       23    21  12    6.81   597.4    4.3      60.635
2014    9       23    21  17    6.81   597.6    4.3      60.660
2014    9       23    21  22    6.81   597.8    4.3      60.686
2014    9       23    21  28    6.81   598.0    4.3      60.714
2014    9       23    21  33    6.80   598.3    4.3      60.742
2014    9       23    21  39    6.80   598.5    4.3      60.772
2014    9       23    21  44    6.80   598.7    4.3      60.803
2014    9       23    21  49    6.80   598.9    4.3      60.835
2014    9       23    21  55    6.80   599.2    4.3      60.870
2014    9       23    22   0    6.80   599.4    4.3      60.905
2014    9       23    22   5    6.80   599.6    4.2      60.941
2014    9       23    22  11    6.80   599.8    4.2      60.977
2014    9       23    22  16    6.80   600.1    4.2      61.014
2014    9       23    22  22    6.80   600.3    4.2      61.052
2014    9       23    22  27    6.80   600.5    4.2      61.090
2014    9       23    22  32    6.80   600.8    4.2      61.128
2014    9       23    22  38    6.79   601.0    4.2      61.167
2014    9       23    22  43    6.79   601.3    4.2      61.206
2014    9       23    22  48    6.79   601.5    4.2      61.245
2014    9       23    22  54    6.79   601.7    4.2      61.284
2014    9       23    22  59    6.79   602.0    4.2      61.322
2014    9       23    23   5    6.79   602.2    4.2      61.361
2014    9       23    23  10    6.79   602.4    4.2      61.399
2014    9       23    23  15    6.79   602.7    4.2      61.436
2014    9       23    23  21    6.79   602.9    4.2      61.473
2014    9       23    23  26    6.79   603.1    4.2      61.511
2014    9       23    23  32    6.79   603.4    4.2      61.547
2014    9       23    23  37    6.79   603.6    4.2      61.584
2014    9       23    23  42    6.79   603.8    4.2      61.621
2014    9       23    23  48    6.79   604.1    4.2      61.658
2014    9       23    23  53    6.79   604.3    4.2      61.694
2014    9       23    23  58    6.78   604.5    4.2      61.731
2014    9       24     0   4    6.78   604.8    4.2      61.767
2014    9       24     0   9    6.78   605.0    4.2      61.804
2014    9       24     0  15    6.78   605.2    4.2      61.841
2014    9       24     0  20    6.78   605.5    4.2      61.877
2014    9       24     0  25    6.78   605.7    4.2      61.914
2014    9       24     0  31    6.78   606.0    4.2      61.950
2014    9       24     0  36    6.78   606.2    4.2      61.986
2014    9       24     0  41    6.78   606.4    4.2      62.023
2014    9       24     0  47    6.78   606.7    4.2      62.059
2014    9       24     0  52    6.78   606.9    4.1      62.095
2014    9       24     0  58    6.78   607.2    4.1      62.132
2014    9       24     1   3    6.78   607.4    4.1      62.168
2014    9       24     1   8    6.78   607.7    4.1      62.205
2014    9       24     1  14    6.78   607.9    4.1      62.242
2014    9       24     1  19    6.77   608.2    4.1      62.278
2014    9       24     1  24    6.77   608.4    4.1      62.314
2014    9       24     1  30    6.77   608.7    4.1      62.350
2014    9       24     1  35    6.77   608.9    4.1      62.386
2014    9       24     1  41    6.77   609.2    4.1      62.422
2014    9       24     1  46    6.77   609.5    4.1      62.457
2014    9       24     1  51    6.77   609.7    4.1      62.493
2014    9       24     1  57    6.77   610.0    4.1      62.529
2014    9       24     2   2    6.77   610.3    4.1      62.564
2014    9       24     2   7    6.77   610.5    4.1      62.599
2014    9       24     2  13    6.76   610.8    4.1      62.633
2014    9       24     2  18    6.76   611.1    4.1      62.666
2014    9       24     2  24    6.76   611.3    4.1      62.699
2014    9       24     2  29    6.76   611.6    4.1      62.732
2014    9       24     2  34    6.76   611.9    4.1      62.764
2014    9       24     2  40    6.76   612.1    4.1      62.796
2014    9       24     2  45    6.76   612.4    4.1      62.828
2014    9       24     2  51    6.76   612.7    4.1      62.859
2014    9       24     2  56    6.76   612.9    4.1      62.891
2014    9       24     3   1    6.75   613.2    4.1      62.923
2014    9       24     3   7    6.75   613.5    4.1      62.954
2014    9       24     3  12    6.75   613.7    4.1      62.986
2014    9       24     3  17    6.75   614.0    4.1      63.018
2014    9       24     3  23    6.75   614.2    4.1      63.050
2014    9       24     3  28    6.75   614.5    4.1      63.083
2014    9       24     3  34    6.75   614.8    4.1      63.117
2014    9       24     3  39    6.75   615.0    4.1      63.151
2014    9       24     3  44    6.75   615.3    4.1      63.187
2014    9       24     3  50    6.75   615.6    4.1      63.223
2014    9       24     3  55    6.75   615.8    4.0      63.261
2014    9       24     4   0    6.75   616.1    4.0      63.300
2014    9       24     4   6    6.75   616.4    4.0      63.341
2014    9       24     4  11    6.75   616.6    4.0      63.384
2014    9       24     4  17    6.75   616.9    4.0      63.430
2014    9       24     4  22    6.75   617.1    4.0      63.478
2014    9       24     4  27    6.74   617.4    4.0      63.529
2014    9       24     4  33    6.74   617.7    4.0      63.583
2014    9       24     4  38    6.74   617.9    4.0      63.641
2014    9       24     4  43    6.74   618.2    4.0      63.703
2014    9       24     4  49    6.74   618.5    4.0      63.768
2014    9       24     4  54    6.74   618.7    4.0      63.838
2014    9       24     5   0    6.74   619.0    4.0      63.913
2014    9       24     5   5    6.74   619.3    4.0      63.993
2014    9       24     5  10    6.74   619.5    4.0      64.080
2014    9       24     5  16    6.74   619.8    4.1      64.174
2014    9       24     5  21    6.74   620.1    4.1      64.274
2014    9       24     5  26    6.74   620.4    4.1      64.379
2014    9       24     5  32    6.74   620.7    4.1      64.490
2014    9       24     5  37    6.74   620.9    4.1      64.611
2014    9       24     5  43    6.73   621.2    4.1      64.737
2014    9       24     5  48    6.73   621.5    4.1      64.870
2014    9       24     5  53    6.73   621.9    4.1      65.007
2014    9       24     5  59    6.73   622.2    4.1      65.146
2014    9       24     6   4    6.73   622.5    4.1      65.282
2014    9       24     6  10    6.72   622.8    4.1      65.415
2014    9       24     6  15    6.72   623.1    4.1      65.543
2014    9       24     6  20    6.72   623.4    4.1      65.668
2014    9       24     6  26    6.72   623.7    4.1      65.790
2014    9       24     6  31    6.71   624.0    4.1      65.908
2014    9       24     6  36    6.71   624.3    4.1      66.023
2014    9       24     6  42    6.71   624.6    4.1      66.132
2014    9       24     6  47    6.70   624.9    4.1      66.239
2014    9       24     6  53    6.70   625.2    4.1      66.343
2014    9       24     6  58    6.69   625.5    4.1      66.444
2014    9       24     7   3    6.69   625.8    4.1      66.540
2014    9       24     7   9    6.69   626.1    4.1      66.632
2014    9       24     7  14    6.68   626.4    4.1      66.717
2014    9       24     7  19    6.68   626.7    4.1      66.791
2014    9       24     7  25    6.67   627.0    4.1      66.853
2014    9       24     7  30    6.67   627.3    4.1      66.905
2014    9       24     7  36    6.66   627.5    4.1      66.946
2014    9       24     7  41    6.66   627.8    4.1      66.976
2014    9       24     7  46    6.65   628.0    4.1      66.997
2014    9       24     7  52    6.65   628.3    4.1      67.007
2014    9       24     7  57    6.64   628.5    4.1      67.008
2014    9       24     8   2    6.64   628.7    4.1      67.001
2014    9       24     8   8    6.63   628.9    4.1      66.986
2014    9       24     8  13    6.63   629.2    4.1      66.963
2014    9       24     8  19    6.62   629.4    4.1      66.933
2014    9       24     8  24    6.62   629.6    4.1      66.897
2014    9       24     8  29    6.61   629.8    4.1      66.855
2014    9       24     8  35    6.61   629.9    4.0      66.808
2014    9       24     8  40    6.60   630.1    4.0      66.755
2014    9       24     8  45    6.60   630.3    4.0      66.698
2014    9       24     8  51    6.59   630.5    4.0      66.635
2014    9       24     8  56    6.59   630.6    4.0      66.569
2014    9       24     9   2    6.58   630.8    4.0      66.497
2014    9       24     9   7    6.58   630.9    4.0      66.421
2014    9       24     9  12    6.57   631.1    4.0      66.341
2014    9       24     9  18    6.57   631.2    4.0      66.257
2014    9       24     9  23    6.56   631.3    3.9      66.168
2014    9       24     9  29    6.56   631.4    3.9      66.074
2014    9       24     9  34    6.55   631.6    3.9      65.976
2014    9       24     9  39    6.55   631.7    3.9      65.873
2014    9       24     9  45    6.54   631.8    3.9      65.765
2014    9       24     9  50    6.54   631.9    3.9      65.652
2014    9       24     9  55    6.53   632.0    3.9      65.533
2014    9       24    10   1    6.53   632.0    3.9      65.410
2014    9       24    10   6    6.53   632.1    3.8      65.284
2014    9       24    10  12    6.52   632.2    3.8      65.154
2014    9       24    10  17    6.52   632.3    3.8      65.022
2014    9       24    10  22    6.51   632.3    3.8      64.890
2014    9       24    10  28    6.51   632.4    3.8      64.759
2014    9       24    10  33    6.50   632.5    3.8      64.627
2014    9       24    10  38    6.50   632.5    3.8      64.494
2014    9       24    10  44    6.50   632.6    3.8      64.360
2014    9       24    10  49    6.49   632.7    3.7      64.225
2014    9       24    10  55    6.49   632.7    3.7      64.089
2014    9       24    11   0    6.48   632.8    3.7      63.949
2014    9       24    11   5    6.48   632.9    3.7      63.807
2014    9       24    11  11    6.48   632.9    3.7      63.660
2014    9       24    11  16    6.47   633.0    3.7      63.511
2014    9       24    11  21    6.47   633.0    3.7      63.360
2014    9       24    11  27    6.46   633.1    3.6      63.204
2014    9       24    11  32    6.46   633.1    3.6      63.043
2014    9       24    11  38    6.46   633.1    3.6      62.879
2014    9       24    11  43    6.45   633.1    3.6      62.714
2014    9       24    11  48    6.45   633.1    3.6      62.546
2014    9       24    11  54    6.45   633.1    3.6      62.379
2014    9       24    11  59    6.44   633.1    3.6      62.215
2014    9       24    12   4    6.44   633.1    3.6      62.057
2014    9       24    12  10    6.44   633.1    3.5      61.902
2014    9       24    12  15    6.43   633.1    3.5      61.752
2014    9       24    12  21    6.43   633.1    3.5      61.606
2014    9       24    12  26    6.43   633.0    3.5      61.465
2014    9       24    12  31    6.42   633.0    3.5      61.328
2014    9       24    12  37    6.42   633.0    3.5      61.196
2014    9       24    12  42    6.42   633.0    3.5      61.067
2014    9       24    12  47    6.42   633.0    3.5      60.943
2014    9       24    12  53    6.41   633.0    3.5      60.823
2014    9       24    12  58    6.41   633.0    3.4      60.706
2014    9       24    13   4    6.41   632.9    3.4      60.594
2014    9       24    13   9    6.41   632.9    3.4      60.485
2014    9       24    13  14    6.40   632.9    3.4      60.380
2014    9       24    13  20    6.40   632.9    3.4      60.278
2014    9       24    13  25    6.40   632.8    3.4      60.179
2014    9       24    13  31    6.39   632.8    3.4      60.085
2014    9       24    13  36    6.39   632.8    3.4      59.996
2014    9       24    13  41    6.39   632.8    3.4      59.910
2014    9       24    13  47    6.39   632.8    3.4      59.830
2014    9       24    13  52    6.38   632.7    3.4      59.755
2014    9       24    13  57    6.38   632.7    3.4      59.686
2014    9       24    14   3    6.38   632.7    3.4      59.622
2014    9       24    14   8    6.37   632.7    3.4      59.564
2014    9       24    14  14    6.37   632.7    3.4      59.513
2014    9       24    14  19    6.37   632.7    3.4      59.468
2014    9       24    14  24    6.37   632.7    3.3      59.429
2014    9       24    14  30    6.36   632.6    3.3      59.396
2014    9       24    14  35    6.36   632.6    3.3      59.369
2014    9       24    14  40    6.36   632.6    3.3      59.349
2014    9       24    14  46    6.35   632.6    3.3      59.336
2014    9       24    14  51    6.35   632.6    3.3      59.330
2014    9       24    14  57    6.35   632.6    3.3      59.332
2014    9       24    15   2    6.34   632.6    3.3      59.343
2014    9       24    15   7    6.34   632.6    3.3      59.362
2014    9       24    15  13    6.34   632.5    3.3      59.391
2014    9       24    15  18    6.33   632.5    3.3      59.428
2014    9       24    15  23    6.33   632.5    3.3      59.477
2014    9       24    15  29    6.33   632.5    3.4      59.535
2014    9       24    15  34    6.32   632.5    3.4      59.604
2014    9       24    15  40    6.32   632.5    3.4      59.684
2014    9       24    15  45    6.31   632.4    3.4      59.775
2014    9       24    15  50    6.31   632.4    3.4      59.878
2014    9       24    15  56    6.31   632.4    3.4      59.992
2014    9       24    16   1    6.30   632.4    3.4      60.117
2014    9       24    16   6    6.30   632.4    3.4      60.255
2014    9       24    16  12    6.30   632.4    3.4      60.403
2014    9       24    16  17    6.29   632.4    3.4      60.563
2014    9       24    16  23    6.29   632.4    3.4      60.734
2014    9       24    16  28    6.28   632.4    3.4      60.916
2014    9       24    16  33    6.28   632.4    3.4      61.108
2014    9       24    16  39    6.28   632.3    3.5      61.311
2014    9       24    16  44    6.27   632.3    3.5      61.523
2014    9       24    16  50    6.27   632.3    3.5      61.745
2014    9       24    16  55    6.26   632.3    3.5      61.975
2014    9       24    17   0    6.26   632.3    3.5      62.214
2014    9       24    17   6    6.25   632.3    3.5      62.461
2014    9       24    17  11    6.25   632.3    3.5      62.716
2014    9       24    17  16    6.25   632.3    3.6      62.978
2014    9       24    17  22    6.24   632.3    3.6      63.248
2014    9       24    17  27    6.24   632.3    3.6      63.524
2014    9       24    17  33    6.23   632.2    3.6      63.808
2014    9       24    17  38    6.23   632.2    3.6      64.097
2014    9       24    17  43    6.22   632.2    3.6      64.392
2014    9       24    17  49    6.22   632.1    3.7      64.692
2014    9       24    17  54    6.21   632.1    3.7      64.997
2014    9       24    17  59    6.21   632.0    3.7      65.306
2014    9       24    18   5    6.20   632.0    3.7      65.620
2014    9       24    18  10    6.20   631.9    3.7      65.935
2014    9       24    18  16    6.20   631.8    3.7      66.251
2014    9       24    18  21    6.19   631.7    3.8      66.572
2014    9       24    18  26    6.19   631.6    3.8      66.897
2014    9       24    18  32    6.18   631.6    3.8      67.225
2014    9       24    18  37    6.18   631.5    3.8      67.554
2014    9       24    18  42    6.18   631.4    3.8      67.883
2014    9       24    18  48    6.17   631.3    3.9      68.215
2014    9       24    18  53    6.17   631.2    3.9      68.550
2014    9       24    18  59    6.17   631.1    3.9      68.890
2014    9       24    19   4    6.16   631.0    3.9      69.231
2014    9       24    19   9    6.16   630.9    3.9      69.574
2014    9       24    19  15    6.16   630.8    4.0      69.918
2014    9       24    19  20    6.16   630.7    4.0      70.253
2014    9       24    19  25    6.15   630.6    4.0      70.576
2014    9       24    19  31    6.15   630.6    4.0      70.892
2014    9       24    19  36    6.15   630.5    4.0      71.200
2014    9       24    19  42    6.15   630.4    4.0      71.498
2014    9       24    19  47    6.15   630.4    4.1      71.787
2014    9       24    19  52    6.15   630.3    4.1      72.065
2014    9       24    19  58    6.15   630.3    4.1      72.331
2014    9       24    20   3    6.15   630.3    4.1      72.578
2014    9       24    20   9    6.15   630.3    4.1      72.809
2014    9       24    20  14    6.15   630.3    4.1      73.023
2014    9       24    20  19    6.15   630.3    4.1      73.220
2014    9       24    20  25    6.15   630.3    4.1      73.402
2014    9       24    20  30    6.15   630.3    4.1      73.569
2014    9       24    20  35    6.15   630.4    4.1      73.720
2014    9       24    20  41    6.15   630.4    4.1      73.856
2014    9       24    20  46    6.16   630.5    4.2      73.978
2014    9       24    20  52    6.16   630.5    4.2      74.085
2014    9       24    20  57    6.16   630.6    4.2      74.180
2014    9       24    21   2    6.16   630.7    4.2      74.261
2014    9       24    21   8    6.16   630.8    4.2      74.329
2014    9       24    21  13    6.17   630.9    4.2      74.386
2014    9       24    21  18    6.17   631.0    4.2      74.431
2014    9       24    21  24    6.17   631.1    4.2      74.465
2014    9       24    21  29    6.17   631.3    4.1      74.488
2014    9       24    21  35    6.18   631.4    4.1      74.501
2014    9       24    21  40    6.18   631.5    4.1      74.503
2014    9       24    21  45    6.18   631.7    4.1      74.497
2014    9       24    21  51    6.18   631.8    4.1      74.481
2014    9       24    21  56    6.19   631.9    4.1      74.457
2014    9       24    22   1    6.19   632.1    4.1      74.425
2014    9       24    22   7    6.19   632.3    4.1      74.384
2014    9       24    22  12    6.20   632.4    4.1      74.336
2014    9       24    22  18    6.20   632.6    4.1      74.281
2014    9       24    22  23    6.20   632.7    4.1      74.219
2014    9       24    22  28    6.20   632.9    4.1      74.151
2014    9       24    22  34    6.21   633.0    4.1      74.076
2014    9       24    22  39    6.21   633.2    4.0      73.997
2014    9       24    22  44    6.21   633.3    4.0      73.912
2014    9       24    22  50    6.22   633.5    4.0      73.823
2014    9       24    22  55    6.22   633.6    4.0      73.730
2014    9       24    23   1    6.23   633.8    4.0      73.633
2014    9       24    23   6    6.23   633.9    4.0      73.534
2014    9       24    23  11    6.23   634.1    4.0      73.432
2014    9       24    23  17    6.24   634.2    4.0      73.327
2014    9       24    23  22    6.24   634.3    4.0      73.219
2014    9       24    23  28    6.25   634.5    4.0      73.110
2014    9       24    23  33    6.25   634.6    3.9      72.998
2014    9       24    23  38    6.26   634.8    3.9      72.883
2014    9       24    23  44    6.26   635.0    3.9      72.767
2014    9       24    23  49    6.27   635.1    3.9      72.649
2014    9       24    23  54    6.27   635.3    3.9      72.529
2014    9       25     0   0    6.28   635.5    3.9      72.406
2014    9       25     0   5    6.28   635.7    3.9      72.281
2014    9       25     0  11    6.29   635.9    3.9      72.153
2014    9       25     0  16    6.29   636.1    3.9      72.021
2014    9       25     0  21    6.30   636.3    3.8      71.884
2014    9       25     0  27    6.30   636.5    3.8      71.741
2014    9       25     0  32    6.31   636.7    3.8      71.592
2014    9       25     0  37    6.31   636.9    3.8      71.437
2014    9       25     0  43    6.32   637.2    3.8      71.276
2014    9       25     0  48    6.32   637.4    3.8      71.107
2014    9       25     0  54    6.32   637.6    3.8      70.931
2014    9       25     0  59    6.33   637.9    3.7      70.747
2014    9       25     1   4    6.33   638.1    3.7      70.556
2014    9       25     1  10    6.33   638.3    3.7      70.359
2014    9       25     1  15    6.34   638.6    3.7      70.156
2014    9       25     1  20    6.34   638.8    3.7      69.950
2014    9       25     1  26    6.34   639.0    3.7      69.744
2014    9       25     1  31    6.34   639.2    3.7      69.535
2014    9       25     1  37    6.34   639.4    3.6      69.326
2014    9       25     1  42    6.34   639.6    3.6      69.114
2014    9       25     1  47    6.34   639.9    3.6      68.900
2014    9       25     1  53    6.35   640.0    3.6      68.687
2014    9       25     1  58    6.35   640.2    3.6      68.476
2014    9       25     2   3    6.35   640.4    3.6      68.268
2014    9       25     2   9    6.35   640.6    3.5      68.065
2014    9       25     2  14    6.35   640.7    3.5      67.871
2014    9       25     2  20    6.35   640.9    3.5      67.685
2014    9       25     2  25    6.35   641.0    3.5      67.507
2014    9       25     2  30    6.34   641.2    3.5      67.336
2014    9       25     2  36    6.34   641.3    3.5      67.172
2014    9       25     2  41    6.34   641.4    3.5      67.015
2014    9       25     2  46    6.34   641.5    3.5      66.864
2014    9       25     2  52    6.34   641.6    3.4      66.721
2014    9       25     2  57    6.34   641.8    3.4      66.584
2014    9       25     3   3    6.34   641.9    3.4      66.452
2014    9       25     3   8    6.33   642.0    3.4      66.326
2014    9       25     3  13    6.33   642.1    3.4      66.205
2014    9       25     3  19    6.33   642.2    3.4      66.089
2014    9       25     3  24    6.33   642.3    3.4      65.978
2014    9       25     3  30    6.32   642.4    3.4      65.871
2014    9       25     3  35    6.32   642.5    3.4      65.767
2014    9       25     3  40    6.32   642.6    3.4      65.667
2014    9       25     3  46    6.32   642.7    3.4      65.569
2014    9       25     3  51    6.31   642.8    3.4      65.474
2014    9       25     3  56    6.31   642.9    3.3      65.382
2014    9       25     4   2    6.30   643.0    3.3      65.292
2014    9       25     4   7    6.30   643.1    3.3      65.205
2014    9       25     4  13    6.30   643.2    3.3      65.121
2014    9       25     4  18    6.29   643.3    3.3      65.038
2014    9       25     4  23    6.29   643.5    3.3      64.958
2014    9       25     4  29    6.28   643.6    3.3      64.878
2014    9       25     4  34    6.28   643.7    3.3      64.798
2014    9       25     4  39    6.27   643.9    3.3      64.718
2014    9       25     4  45    6.26   644.0    3.3      64.638
2014    9       25     4  50    6.26   644.2    3.3      64.557
2014    9       25     4  56    6.25   644.3    3.3      64.477
2014    9       25     5   1    6.25   644.5    3.3      64.397
2014    9       25     5   6    6.24   644.6    3.3      64.319
2014    9       25     5  12    6.23   644.8    3.2      64.241
2014    9       25     5  17    6.23   644.9    3.2      64.163
2014    9       25     5  22    6.22   645.0    3.2      64.084
2014    9       25     5  28    6.21   645.2    3.2      64.005
2014    9       25     5  33    6.21   645.3    3.2      63.926
2014    9       25     5  39    6.20   645.4    3.2      63.845
2014    9       25     5  44    6.19   645.5    3.2      63.765
2014    9       25     5  49    6.19   645.6    3.2      63.684
2014    9       25     5  55    6.18   645.8    3.2      63.604
2014    9       25     6   0    6.17   645.9    3.2      63.524
2014    9       25     6   5    6.16   646.0    3.2      63.445
2014    9       25     6  11    6.15   646.1    3.2      63.366
2014    9       25     6  16    6.15   646.2    3.2      63.289
2014    9       25     6  22    6.14   646.3    3.2      63.212
2014    9       25     6  27    6.13   646.4    3.2      63.136
2014    9       25     6  32    6.12   646.5    3.2      63.062
2014    9       25     6  38    6.11   646.6    3.2      62.988
2014    9       25     6  43    6.10   646.7    3.1      62.915
2014    9       25     6  49    6.09   646.8    3.1      62.844
2014    9       25     6  54    6.08   646.9    3.1      62.775
2014    9       25     6  59    6.08   647.0    3.1      62.706
2014    9       25     7   5    6.07   647.1    3.1      62.640
2014    9       25     7  10    6.06   647.2    3.1      62.574
2014    9       25     7  15    6.05   647.3    3.1      62.508
2014    9       25     7  21    6.04   647.4    3.1      62.444
2014    9       25     7  26    6.03   647.5    3.1      62.382
2014    9       25     7  32    6.02   647.5    3.1      62.321
2014    9       25     7  37    6.01   647.6    3.1      62.260
2014    9       25     7  42    6.00   647.7    3.1      62.201
2014    9       25     7  48    5.99   647.7    3.1      62.143
2014    9       25     7  53    5.99   647.8    3.1      62.084
2014    9       25     7  58    5.98   647.9    3.1      62.026
2014    9       25     8   4    5.97   647.9    3.1      61.967
2014    9       25     8   9    5.96   648.0    3.1      61.908
2014    9       25     8  15    5.95   648.0    3.1      61.850
2014    9       25     8  20    5.95   648.1    3.1      61.792
2014    9       25     8  25    5.94   648.1    3.1      61.734
2014    9       25     8  31    5.93   648.2    3.0      61.677
2014    9       25     8  36    5.92   648.2    3.0      61.621
2014    9       25     8  41    5.91   648.3    3.0      61.565
2014    9       25     8  47    5.91   648.3    3.0      61.509
2014    9       25     8  52    5.90   648.4    3.0      61.454
2014    9       25     8  58    5.89   648.4    3.0      61.399
2014    9       25     9   3    5.89   648.5    3.0      61.345
2014    9       25     9   8    5.88   648.5    3.0      61.290
2014    9       25     9  14    5.87   648.6    3.0      61.236
2014    9       25     9  19    5.86   648.6    3.0      61.182
2014    9       25     9  24    5.86   648.6    3.0      61.128
2014    9       25     9  30    5.85   648.7    3.0      61.074
2014    9       25     9  35    5.84   648.7    3.0      61.019
2014    9       25     9  41    5.84   648.7    3.0      60.965
2014    9       25     9  46    5.83   648.8    3.0      60.910
2014    9       25     9  51    5.83   648.8    3.0      60.855
2014    9       25     9  57    5.82   648.8    3.0      60.800
2014    9       25    10   2    5.81   648.9    3.0      60.744
2014    9       25    10   7    5.81   648.9    3.0      60.688
2014    9       25    10  13    5.80   648.9    3.0      60.633
2014    9       25    10  18    5.79   649.0    3.0      60.578
2014    9       25    10  24    5.79   649.0    3.0      60.523
2014    9       25    10  29    5.78   649.0    3.0      60.469
2014    9       25    10  34    5.78   649.0    2.9      60.416
2014    9       25    10  40    5.77   649.1    2.9      60.364
2014    9       25    10  45    5.77   649.1    2.9      60.312
2014    9       25    10  51    5.76   649.1    2.9      60.262
2014    9       25    10  56    5.76   649.1    2.9      60.212
2014    9       25    11   1    5.75   649.1    2.9      60.164
2014    9       25    11   7    5.75   649.2    2.9      60.118
2014    9       25    11  12    5.74   649.2    2.9      60.073
2014    9       25    11  17    5.74   649.2    2.9      60.030
2014    9       25    11  23    5.73   649.2    2.9      59.989
2014    9       25    11  28    5.73   649.2    2.9      59.950
2014    9       25    11  34    5.72   649.2    2.9      59.912
2014    9       25    11  39    5.72   649.2    2.9      59.877
2014    9       25    11  44    5.71   649.2    2.9      59.844
2014    9       25    11  50    5.71   649.2    2.9      59.812
2014    9       25    11  55    5.70   649.2    2.9      59.783
2014    9       25    12   0    5.70   649.2    2.9      59.756
2014    9       25    12   6    5.69   649.2    2.9      59.730
2014    9       25    12  11    5.69   649.2    2.9      59.707
2014    9       25    12  17    5.69   649.2    2.9      59.685
2014    9       25    12  22    5.68   649.2    2.9      59.665
2014    9       25    12  27    5.68   649.2    2.9      59.646
2014    9       25    12  33    5.67   649.2    2.9      59.629
2014    9       25    12  38    5.67   649.2    2.9      59.612
2014    9       25    12  43    5.66   649.2    2.9      59.597
2014    9       25    12  49    5.66   649.2    2.9      59.583
2014    9       25    12  54    5.66   649.2    2.9      59.570
2014    9       25    13   0    5.65   649.2    2.9      59.557
2014    9       25    13   5    5.65   649.1    2.9      59.544
2014    9       25    13  10    5.64   649.1    2.9      59.532
2014    9       25    13  16    5.64   649.1    2.9      59.520
2014    9       25    13  21    5.64   649.1    2.9      59.509
2014    9       25    13  26    5.63   649.0    2.9      59.497
2014    9       25    13  32    5.63   649.0    2.9      59.485
2014    9       25    13  37    5.63   648.9    2.9      59.473
2014    9       25    13  43    5.62   648.9    2.9      59.460
2014    9       25    13  48    5.62   648.9    2.9      59.447
2014    9       25    13  53    5.61   648.8    2.9      59.433
2014    9       25    13  59    5.61   648.8    2.9      59.418
2014    9       25    14   4    5.61   648.7    2.9      59.403
2014    9       25    14  10    5.60   648.7    2.9      59.388
2014    9       25    14  15    5.60   648.6    2.9      59.371
2014    9       25    14  20    5.60   648.6    2.9      59.355
2014    9       25    14  26    5.59   648.5    2.9      59.337
2014    9       25    14  31    5.59   648.5    2.9      59.319
2014    9       25    14  36    5.59   648.5    2.9      59.301
2014    9       25    14  42    5.59   648.4    2.9      59.282
2014    9       25    14  47    5.58   648.4    2.9      59.263
2014    9       25    14  53    5.58   648.3    2.9      59.244
2014    9       25    14  58    5.58   648.3    2.9      59.224
2014    9       25    15   3    5.57   648.2    2.9      59.204
2014    9       25    15   9    5.57   648.2    2.9      59.183
2014    9       25    15  14    5.57   648.1    2.9      59.162
2014    9       25    15  19    5.57   648.1    2.9      59.141
2014    9       25    15  25    5.56   648.0    2.9      59.119
2014    9       25    15  30    5.56   648.0    2.9      59.097
2014    9       25    15  36    5.56   647.9    2.9      59.075
2014    9       25    15  41    5.56   647.9    2.9      59.052
2014    9       25    15  46    5.55   647.8    2.9      59.030
2014    9       25    15  52    5.55   647.7    2.9      59.007
2014    9       25    15  57    5.55   647.7    2.9      58.984
2014    9       25    16   2    5.55   647.6    2.9      58.961
2014    9       25    16   8    5.55   647.6    2.9      58.938
2014    9       25    16  13    5.54   647.5    2.9      58.914
2014    9       25    16  19    5.54   647.5    2.9      58.891
2014    9       25    16  24    5.54   647.4    2.9      58.868
2014    9       25    16  29    5.54   647.4    2.9      58.845
2014    9       25    16  35    5.53   647.3    2.9      58.822
2014    9       25    16  40    5.53   647.2    2.9      58.800
2014    9       25    16  45    5.53   647.2    2.9      58.777
2014    9       25    16  51    5.53   647.1    2.9      58.755
2014    9       25    16  56    5.52   647.1    2.9      58.734
2014    9       25    17   2    5.52   647.0    2.9      58.713
2014    9       25    17   7    5.52   646.9    2.8      58.692
2014    9       25    17  12    5.52   646.9    2.8      58.672
2014    9       25    17  18    5.52   646.8    2.8      58.653
2014    9       25    17  23    5.51   646.8    2.8      58.634
2014    9       25    17  29    5.51   646.7    2.8      58.616
2014    9       25    17  34    5.51   646.6    2.8      58.599
2014    9       25    17  39    5.51   646.6    2.8      58.582
2014    9       25    17  45    5.51   646.5    2.8      58.566
2014    9       25    17  50    5.50   646.4    2.8      58.550
2014    9       25    17  55    5.50   646.4    2.8      58.535
2014    9       25    18   1    5.50   646.3    2.8      58.520
2014    9       25    18   6    5.50   646.3    2.8      58.506
2014    9       25    18  12    5.50   646.2    2.8      58.492
2014    9       25    18  17    5.49   646.1    2.8      58.479
2014    9       25    18  22    5.49   646.1    2.8      58.466
2014    9       25    18  28    5.49   646.0    2.8      58.453
2014    9       25    18  33    5.49   646.0    2.8      58.440
2014    9       25    18  38    5.49   645.9    2.8      58.427
2014    9       25    18  44    5.48   645.8    2.8      58.414
2014    9       25    18  49    5.48   645.8    2.8      58.402
2014    9       25    18  55    5.48   645.7    2.8      58.389
2014    9       25    19   0    5.48   645.6    2.8      58.376
2014    9       25    19   5    5.48   645.6    2.8      58.363
2014    9       25    19  11    5.48   645.5    2.8      58.350
2014    9       25    19  16    5.47   645.4    2.8      58.337
2014    9       25    19  21    5.47   645.4    2.8      58.324
2014    9       25    19  27    5.47   645.3    2.8      58.310
2014    9       25    19  32    5.47   645.2    2.8      58.297
2014    9       25    19  38    5.47   645.1    2.8      58.283
2014    9       25    19  43    5.46   645.1    2.8      58.270
2014    9       25    19  48    5.46   645.0    2.8      58.257
2014    9       25    19  54    5.46   644.9    2.8      58.244
2014    9       25    19  59    5.46   644.9    2.8      58.231
2014    9       25    20   4    5.46   644.8    2.8      58.219
2014    9       25    20  10    5.46   644.7    2.8      58.206
2014    9       25    20  15    5.45   644.6    2.8      58.194
2014    9       25    20  21    5.45   644.6    2.8      58.182
2014    9       25    20  26    5.45   644.5    2.8      58.171
2014    9       25    20  31    5.45   644.4    2.8      58.160
2014    9       25    20  37    5.45   644.3    2.8      58.150
2014    9       25    20  42    5.45   644.3    2.8      58.141
2014    9       25    20  47    5.44   644.2    2.8      58.132
2014    9       25    20  53    5.44   644.1    2.8      58.123
2014    9       25    20  58    5.44   644.1    2.8      58.114
2014    9       25    21   4    5.44   644.0    2.8      58.106
2014    9       25    21   9    5.44   643.9    2.8      58.099
2014    9       25    21  14    5.44   643.8    2.8      58.093
2014    9       25    21  20    5.44   643.8    2.8      58.086
2014    9       25    21  25    5.43   643.7    2.8      58.080
2014    9       25    21  31    5.43   643.6    2.8      58.073
2014    9       25    21  36    5.43   643.6    2.8      58.067
2014    9       25    21  41    5.43   643.5    2.8      58.062
2014    9       25    21  47    5.43   643.4    2.8      58.056
2014    9       25    21  52    5.43   643.4    2.8      58.052
2014    9       25    21  57    5.43   643.3    2.8      58.048
2014    9       25    22   3    5.42   643.3    2.8      58.045
2014    9       25    22   8    5.42   643.2    2.8      58.042
2014    9       25    22  14    5.42   643.1    2.8      58.040
2014    9       25    22  19    5.42   643.1    2.8      58.039
2014    9       25    22  24    5.42   643.0    2.9      58.040
2014    9       25    22  30    5.42   643.0    2.9      58.040
2014    9       25    22  35    5.41   642.9    2.9      58.042
2014    9       25    22  40    5.41   642.9    2.9      58.042
2014    9       25    22  46    5.41   642.8    2.9      58.042
2014    9       25    22  51    5.41   642.8    2.9      58.039
2014    9       25    22  57    5.41   642.7    2.9      58.035
2014    9       25    23   2    5.41   642.6    2.9      58.030
2014    9       25    23   7    5.41   642.6    2.9      58.024
2014    9       25    23  13    5.40   642.5    2.9      58.016
2014    9       25    23  18    5.40   642.5    2.9      58.006
2014    9       25    23  23    5.40   642.4    2.9      57.996
2014    9       25    23  29    5.40   642.3    2.9      57.984
2014    9       25    23  34    5.40   642.3    2.9      57.971
2014    9       25    23  40    5.40   642.2    2.9      57.958
2014    9       25    23  45    5.39   642.2    2.8      57.943
2014    9       25    23  50    5.39   642.1    2.8      57.927
2014    9       25    23  56    5.39   642.0    2.8      57.911
2014    9       26     0   1    5.39   642.0    2.8      57.893
2014    9       26     0   6    5.39   641.9    2.8      57.875
2014    9       26     0  12    5.39   641.8    2.8      57.856
2014    9       26     0  17    5.39   641.7    2.8      57.837
2014    9       26     0  23    5.38   641.7    2.8      57.817
2014    9       26     0  28    5.38   641.6    2.8      57.796
2014    9       26     0  33    5.38   641.5    2.8      57.774
2014    9       26     0  39    5.38   641.5    2.8      57.752
2014    9       26     0  44    5.38   641.4    2.8      57.730
2014    9       26     0  50    5.38   641.3    2.8      57.706
2014    9       26     0  55    5.37   641.2    2.8      57.683
2014    9       26     1   0    5.37   641.2    2.8      57.658
2014    9       26     1   6    5.37   641.1    2.8      57.633
2014    9       26     1  11    5.37   641.0    2.8      57.608
2014    9       26     1  16    5.37   640.9    2.8      57.583
2014    9       26     1  22    5.37   640.8    2.8      57.557
2014    9       26     1  27    5.37   640.8    2.8      57.531
2014    9       26     1  33    5.36   640.7    2.8      57.505
2014    9       26     1  38    5.36   640.6    2.8      57.479
2014    9       26     1  43    5.36   640.5    2.8      57.453
2014    9       26     1  49    5.36   640.4    2.8      57.426
2014    9       26     1  54    5.36   640.3    2.8      57.401
2014    9       26     1  59    5.36   640.2    2.8      57.376
2014    9       26     2   5    5.36   640.2    2.8      57.351
2014    9       26     2  10    5.35   640.1    2.8      57.327
2014    9       26     2  16    5.35   640.0    2.8      57.303
2014    9       26     2  21    5.35   639.9    2.8      57.281
2014    9       26     2  26    5.35   639.8    2.8      57.260
2014    9       26     2  32    5.35   639.7    2.8      57.240
2014    9       26     2  37    5.35   639.6    2.8      57.222
2014    9       26     2  42    5.35   639.5    2.8      57.204
2014    9       26     2  48    5.35   639.4    2.8      57.188
2014    9       26     2  53    5.34   639.4    2.8      57.174
2014    9       26     2  59    5.34   639.3    2.8      57.160
2014    9       26     3   4    5.34   639.2    2.8      57.148
2014    9       26     3   9    5.34   639.1    2.8      57.138
2014    9       26     3  15    5.34   639.0    2.8      57.127
2014    9       26     3  20    5.34   639.0    2.8      57.118
2014    9       26     3  25    5.34   638.9    2.8      57.110
2014    9       26     3  31    5.34   638.8    2.8      57.103
2014    9       26     3  36    5.33   638.7    2.8      57.096
2014    9       26     3  42    5.33   638.6    2.8      57.090
2014    9       26     3  47    5.33   638.6    2.8      57.085
2014    9       26     3  52    5.33   638.5    2.8      57.081
2014    9       26     3  58    5.33   638.4    2.8      57.076
2014    9       26     4   3    5.33   638.4    2.8      57.072
2014    9       26     4   9    5.33   638.3    2.8      57.068
2014    9       26     4  14    5.33   638.2    2.8      57.064
2014    9       26     4  19    5.33   638.2    2.8      57.060
2014    9       26     4  25    5.32   638.1    2.8      57.056
2014    9       26     4  30    5.32   638.0    2.8      57.052
2014    9       26     4  35    5.32   638.0    2.8      57.048
2014    9       26     4  41    5.32   637.9    2.8      57.043
2014    9       26     4  46    5.32   637.8    2.8      57.038
2014    9       26     4  52    5.32   637.8    2.8      57.032
2014    9       26     4  57    5.32   637.7    2.8      57.026
2014    9       26     5   2    5.32   637.6    2.8      57.018
2014    9       26     5   8    5.31   637.6    2.8      57.009
2014    9       26     5  13    5.31   637.5    2.8      57.000
2014    9       26     5  18    5.31   637.4    2.8      56.990
2014    9       26     5  24    5.31   637.3    2.8      56.979
2014    9       26     5  29    5.31   637.3    2.8      56.967
2014    9       26     5  35    5.31   637.2    2.8      56.955
2014    9       26     5  40    5.31   637.1    2.8      56.943
2014    9       26     5  45    5.31   637.1    2.8      56.929
2014    9       26     5  51    5.30   637.0    2.8      56.916
2014    9       26     5  56    5.30   636.9    2.8      56.901
2014    9       26     6   1    5.30   636.8    2.8      56.886
2014    9       26     6   7    5.30   636.8    2.8      56.872
2014    9       26     6  12    5.30   636.7    2.8      56.856
2014    9       26     6  18    5.30   636.6    2.8      56.841
2014    9       26     6  23    5.30   636.5    2.8      56.825
2014    9       26     6  28    5.30   636.5    2.8      56.809
2014    9       26     6  34    5.29   636.4    2.8      56.794
2014    9       26     6  39    5.29   636.3    2.8      56.778
2014    9       26     6  44    5.29   636.2    2.8      56.763
2014    9       26     6  50    5.29   636.2    2.8      56.747
2014    9       26     6  55    5.29   636.1    2.8      56.732
2014    9       26     7   1    5.29   636.0    2.8      56.717
2014    9       26     7   6    5.29   635.9    2.8      56.703
2014    9       26     7  11    5.29   635.9    2.8      56.688
2014    9       26     7  17    5.28   635.8    2.8      56.674
2014    9       26     7  22    5.28   635.7    2.8      56.661
2014    9       26     7  27    5.28   635.6    2.8      56.648
2014    9       26     7  33    5.28   635.6    2.8      56.635
2014    9       26     7  38    5.28   635.5    2.8      56.622
2014    9       26     7  44    5.28   635.4    2.8      56.610
2014    9       26     7  49    5.28   635.3    2.8      56.599
2014    9       26     7  54    5.28   635.3    2.8      56.587
2014    9       26     8   0    5.28   635.2    2.8      56.576
2014    9       26     8   5    5.27   635.1    2.8      56.565
2014    9       26     8  11    5.27   635.0    2.8      56.554
2014    9       26     8  16    5.27   635.0    2.8      56.544
2014    9       26     8  21    5.27   634.9    2.8      56.534
2014    9       26     8  27    5.27   634.8    2.8      56.524
2014    9       26     8  32    5.27   634.7    2.8      56.514
2014    9       26     8  37    5.27   634.6    2.8      56.504
2014    9       26     8  43    5.27   634.6    2.8      56.495
2014    9       26     8  48    5.26   634.5    2.8      56.485
2014    9       26     8  54    5.26   634.4    2.8      56.476
2014    9       26     8  59    5.26   634.3    2.8      56.467
2014    9       26     9   4    5.26   634.2    2.8      56.457
2014    9       26     9  10    5.26   634.1    2.8      56.447
2014    9       26     9  15    5.26   634.0    2.8      56.437
2014    9       26     9  20    5.26   633.9    2.8      56.427
2014    9       26     9  26    5.26   633.8    2.8      56.416
2014    9       26     9  31    5.25   633.8    2.8      56.405
2014    9       26     9  37    5.25   633.7    2.8      56.395
2014    9       26     9  42    5.25   633.6    2.8      56.384
2014    9       26     9  47    5.25   633.5    2.8      56.373
2014    9       26     9  53    5.25   633.4    2.8      56.363
2014    9       26     9  58    5.25   633.3    2.8      56.353
2014    9       26    10   3    5.25   633.2    2.8      56.343
2014    9       26    10   9    5.25   633.1    2.8      56.333
2014    9       26    10  14    5.25   633.0    2.8      56.323
2014    9       26    10  20    5.25   632.9    2.8      56.313
2014    9       26    10  25    5.24   632.8    2.8      56.303
2014    9       26    10  30    5.24   632.7    2.8      56.293
2014    9       26    10  36    5.24   632.7    2.8      56.283
2014    9       26    10  41    5.24   632.6    2.8      56.272
2014    9       26    10  46    5.24   632.5    2.8      56.261
2014    9       26    10  52    5.24   632.4    2.8      56.250
2014    9       26    10  57    5.24   632.3    2.8      56.239
2014    9       26    11   3    5.24   632.2    2.8      56.227
2014    9       26    11   8    5.24   632.1    2.8      56.215
2014    9       26    11  13    5.23   632.1    2.8      56.203
2014    9       26    11  19    5.23   632.0    2.8      56.190
2014    9       26    11  24    5.23   631.9    2.8      56.178
2014    9       26    11  30    5.23   631.8    2.8      56.165
2014    9       26    11  35    5.23   631.7    2.8      56.151
2014    9       26    11  40    5.23   631.6    2.8      56.137
2014    9       26    11  46    5.23   631.6    2.8      56.123
2014    9       26    11  51    5.23   631.5    2.8      56.108
2014    9       26    11  56    5.23   631.4    2.8      56.093
2014    9       26    12   2    5.23   631.3    2.8      56.077
2014    9       26    12   7    5.22   631.2    2.8      56.060
2014    9       26    12  13    5.22   631.1    2.8      56.044
2014    9       26    12  18    5.22   631.1    2.8      56.026
2014    9       26    12  23    5.22   631.0    2.8      56.009
2014    9       26    12  29    5.22   630.9    2.8      55.991
2014    9       26    12  34    5.22   630.8    2.8      55.973
2014    9       26    12  39    5.22   630.7    2.8      55.955
2014    9       26    12  45    5.22   630.7    2.8      55.936
2014    9       26    12  50    5.22   630.6    2.8      55.917
2014    9       26    12  56    5.22   630.5    2.8      55.898
2014    9       26    13   1    5.21   630.4    2.8      55.878
2014    9       26    13   6    5.21   630.3    2.8      55.858
2014    9       26    13  12    5.21   630.3    2.8      55.838
2014    9       26    13  17    5.21   630.2    2.8      55.817
2014    9       26    13  22    5.21   630.1    2.8      55.796
2014    9       26    13  28    5.21   630.0    2.8      55.775
2014    9       26    13  33    5.21   629.9    2.8      55.754
2014    9       26    13  39    5.21   629.8    2.8      55.733
2014    9       26    13  44    5.21   629.7    2.8      55.712
2014    9       26    13  49    5.21   629.7    2.8      55.690
2014    9       26    13  55    5.20   629.6    2.8      55.669
2014    9       26    14   0    5.20   629.5    2.8      55.648
2014    9       26    14   5    5.20   629.4    2.8      55.628
2014    9       26    14  11    5.20   629.3    2.8      55.607
2014    9       26    14  16    5.20   629.2    2.8      55.587
2014    9       26    14  22    5.20   629.1    2.8      55.568
2014    9       26    14  27    5.20   629.1    2.8      55.549
2014    9       26    14  32    5.20   629.0    2.8      55.531
2014    9       26    14  38    5.20   628.9    2.8      55.514
2014    9       26    14  43    5.20   628.8    2.8      55.498
2014    9       26    14  48    5.19   628.7    2.8      55.482
2014    9       26    14  54    5.19   628.6    2.8      55.467
2014    9       26    14  59    5.19   628.5    2.8      55.453
2014    9       26    15   5    5.19   628.4    2.8      55.441
2014    9       26    15  10    5.19   628.4    2.8      55.429
2014    9       26    15  15    5.19   628.3    2.8      55.418
2014    9       26    15  21    5.19   628.2    2.8      55.409
2014    9       26    15  26    5.19   628.1    2.8      55.400
2014    9       26    15  31    5.19   628.0    2.8      55.393
2014    9       26    15  37    5.19   627.9    2.8      55.386
2014    9       26    15  42    5.19   627.8    2.8      55.381
2014    9       26    15  48    5.18   627.7    2.8      55.376
2014    9       26    15  53    5.18   627.7    2.8      55.373
2014    9       26    15  58    5.18   627.6    2.8      55.370
2014    9       26    16   4    5.18   627.5    2.8      55.368
2014    9       26    16   9    5.18   627.4    2.8      55.367
2014    9       26    16  15    5.18   627.3    2.8      55.366
2014    9       26    16  20    5.18   627.2    2.8      55.365
2014    9       26    16  25    5.18   627.1    2.8      55.364
2014    9       26    16  31    5.18   627.0    2.8      55.363
2014    9       26    16  36    5.18   627.0    2.8      55.361
2014    9       26    16  41    5.17   626.9    2.8      55.359
2014    9       26    16  47    5.17   626.8    2.8      55.356
2014    9       26    16  52    5.17   626.7    2.9      55.353
2014    9       26    16  58    5.17   626.6    2.9      55.348
2014    9       26    17   3    5.17   626.5    2.9      55.344
2014    9       26    17   8    5.17   626.4    2.9      55.338
2014    9       26    17  14    5.17   626.3    2.9      55.332
2014    9       26    17  19    5.17   626.2    2.9      55.324
2014    9       26    17  24    5.17   626.1    2.9      55.316
2014    9       26    17  30    5.17   626.0    2.9      55.307
2014    9       26    17  35    5.16   625.9    2.9      55.298
2014    9       26    17  41    5.16   625.8    2.9      55.288
2014    9       26    17  46    5.16   625.7    2.9      55.277
2014    9       26    17  51    5.16   625.6    2.9      55.266
2014    9       26    17  57    5.16   625.5    2.9      55.254
2014    9       26    18   2    5.16   625.4    2.9      55.241
2014    9       26    18   7    5.16   625.2    2.9      55.228
2014    9       26    18  13    5.16   625.1    2.9      55.214
2014    9       26    18  18    5.16   625.0    2.9      55.200
2014    9       26    18  24    5.16   624.9    2.9      55.186
2014    9       26    18  29    5.15   624.8    2.9      55.171
2014    9       26    18  34    5.15   624.7    2.9      55.156
2014    9       26    18  40    5.15   624.6    2.9      55.141
2014    9       26    18  45    5.15   624.5    2.9      55.125
2014    9       26    18  50    5.15   624.4    2.9      55.110
2014    9       26    18  56    5.15   624.3    2.9      55.094
2014    9       26    19   1    5.15   624.2    2.9      55.078
2014    9       26    19   7    5.15   624.1    2.9      55.063
2014    9       26    19  12    5.15   623.9    2.9      55.047
2014    9       26    19  17    5.15   623.8    2.9      55.032
2014    9       26    19  23    5.15   623.7    2.9      55.017
2014    9       26    19  28    5.15   623.6    2.9      55.003
2014    9       26    19  34    5.14   623.5    2.9      54.989
2014    9       26    19  39    5.14   623.4    2.9      54.975
2014    9       26    19  44    5.14   623.3    2.9      54.962
2014    9       26    19  50    5.14   623.2    2.9      54.950
2014    9       26    19  55    5.14   623.1    2.9      54.938
2014    9       26    20   0    5.14   623.0    2.9      54.926
2014    9       26    20   6    5.14   622.9    2.9      54.915
2014    9       26    20  11    5.14   622.8    2.9      54.904
2014    9       26    20  17    5.14   622.7    2.9      54.893
2014    9       26    20  22    5.14   622.6    2.9      54.883
2014    9       26    20  27    5.14   622.5    2.9      54.873
2014    9       26    20  33    5.14   622.4    2.9      54.863
2014    9       26    20  38    5.14   622.3    2.9      54.854
2014    9       26    20  43    5.13   622.2    2.9      54.845
2014    9       26    20  49    5.13   622.1    2.9      54.837
2014    9       26    20  54    5.13   622.0    2.9      54.828
2014    9       26    21   0    5.13   621.9    2.9      54.819
2014    9       26    21   5    5.13   621.8    2.9      54.810
2014    9       26    21  10    5.13   621.7    2.9      54.802
2014    9       26    21  16    5.13   621.6    2.9      54.793
2014    9       26    21  21    5.13   621.5    2.9      54.784
2014    9       26    21  26    5.13   621.4    2.9      54.775
2014    9       26    21  32    5.13   621.3    2.9      54.765
2014    9       26    21  37    5.13   621.2    2.9      54.755
2014    9       26    21  43    5.13   621.2    2.9      54.743
2014    9       26    21  48    5.12   621.1    2.9      54.731
2014    9       26    21  53    5.12   621.0    2.9      54.717
2014    9       26    21  59    5.12   620.9    2.9      54.703
2014    9       26    22   4    5.12   620.8    2.9      54.688
2014    9       26    22   9    5.12   620.7    2.9      54.673
2014    9       26    22  15    5.12   620.6    2.9      54.656
2014    9       26    22  20    5.12   620.5    2.9      54.639
2014    9       26    22  26    5.12   620.4    2.9      54.622
2014    9       26    22  31    5.12   620.3    2.9      54.605
2014    9       26    22  36    5.12   620.2    2.9      54.586
2014    9       26    22  42    5.12   620.1    2.9      54.568
2014    9       26    22  47    5.11   620.0    2.9      54.550
2014    9       26    22  52    5.11   619.8    2.9      54.531
2014    9       26    22  58    5.11   619.7    2.9      54.513
2014    9       26    23   3    5.11   619.6    2.9      54.495
2014    9       26    23   9    5.11   619.5    2.9      54.476
2014    9       26    23  14    5.11   619.4    2.9      54.458
2014    9       26    23  19    5.11   619.3    2.9      54.440
2014    9       26    23  25    5.11   619.2    2.9      54.422
2014    9       26    23  30    5.11   619.1    2.9      54.405
2014    9       26    23  36    5.11   619.0    2.9      54.387
2014    9       26    23  41    5.11   618.9    2.9      54.370
2014    9       26    23  46    5.10   618.8    2.9      54.353
2014    9       26    23  52    5.10   618.7    2.9      54.336
2014    9       26    23  57    5.10   618.6    2.9      54.319
2014    9       27     0   2    5.10   618.4    2.9      54.302
2014    9       27     0   8    5.10   618.3    2.9      54.285
2014    9       27     0  13    5.10   618.2    2.9      54.268
2014    9       27     0  19    5.10   618.1    2.9      54.252
2014    9       27     0  24    5.10   618.0    2.9      54.235
2014    9       27     0  29    5.10   617.8    2.9      54.219
2014    9       27     0  35    5.10   617.7    2.9      54.202
2014    9       27     0  40    5.10   617.6    2.9      54.186
2014    9       27     0  45    5.09   617.5    2.9      54.170
2014    9       27     0  51    5.09   617.3    2.9      54.154
2014    9       27     0  56    5.09   617.2    2.9      54.138
2014    9       27     1   2    5.09   617.1    2.9      54.122
2014    9       27     1   7    5.09   616.9    2.9      54.107
2014    9       27     1  12    5.09   616.8    2.9      54.093
2014    9       27     1  18    5.09   616.7    2.9      54.078
2014    9       27     1  23    5.09   616.5    2.9      54.064
2014    9       27     1  28    5.09   616.4    2.9      54.051
2014    9       27     1  34    5.09   616.3    2.9      54.038
2014    9       27     1  39    5.09   616.1    2.9      54.027
2014    9       27     1  45    5.09   616.0    2.9      54.015
2014    9       27     1  50    5.09   615.8    2.9      54.005
2014    9       27     1  55    5.08   615.7    2.9      53.995
2014    9       27     2   1    5.08   615.6    2.9      53.986
2014    9       27     2   6    5.08   615.4    2.9      53.978
2014    9       27     2  11    5.08   615.3    2.9      53.971
2014    9       27     2  17    5.08   615.2    2.9      53.965
2014    9       27     2  22    5.08   615.0    2.9      53.959
2014    9       27     2  28    5.08   614.9    2.9      53.954
2014    9       27     2  33    5.08   614.8    2.9      53.950
2014    9       27     2  38    5.08   614.6    2.9      53.947
2014    9       27     2  44    5.08   614.5    2.9      53.944
2014    9       27     2  49    5.08   614.4    2.9      53.942
2014    9       27     2  55    5.08   614.3    2.9      53.940
2014    9       27     3   0    5.08   614.1    2.9      53.939
2014    9       27     3   5    5.08   614.0    2.9      53.937
2014    9       27     3  11    5.08   613.9    2.9      53.936
2014    9       27     3  16    5.08   613.8    2.9      53.935
2014    9       27     3  21    5.08   613.6    2.9      53.934
2014    9       27     3  27    5.08   613.5    2.9      53.932
2014    9       27     3  32    5.08   613.4    2.9      53.931
2014    9       27     3  38    5.07   613.2    2.9      53.929
2014    9       27     3  43    5.07   613.1    2.9      53.927
2014    9       27     3  48    5.07   613.0    2.9      53.925
2014    9       27     3  54    5.07   612.9    2.9      53.922
2014    9       27     3  59    5.07   612.7    2.9      53.919
2014    9       27     4   4    5.07   612.6    2.9      53.916
2014    9       27     4  10    5.07   612.5    2.9      53.911
2014    9       27     4  15    5.07   612.4    2.9      53.906
2014    9       27     4  21    5.07   612.2    2.9      53.901
2014    9       27     4  26    5.07   612.1    2.9      53.895
2014    9       27     4  31    5.07   612.0    2.9      53.889
2014    9       27     4  37    5.07   611.8    2.9      53.882
2014    9       27     4  42    5.07   611.7    2.9      53.875
2014    9       27     4  47    5.07   611.6    2.9      53.867
2014    9       27     4  53    5.07   611.5    2.9      53.860
2014    9       27     4  58    5.07   611.3    2.9      53.852
2014    9       27     5   4    5.06   611.2    2.9      53.844
2014    9       27     5   9    5.06   611.1    2.9      53.836
2014    9       27     5  14    5.06   611.0    2.9      53.828
2014    9       27     5  20    5.06   610.8    2.9      53.820
2014    9       27     5  25    5.06   610.7    2.9      53.811
2014    9       27     5  30    5.06   610.6    2.9      53.803
2014    9       27     5  36    5.06   610.4    2.9      53.795
2014    9       27     5  41    5.06   610.3    2.9      53.786
2014    9       27     5  47    5.06   610.2    2.9      53.778
2014    9       27     5  52    5.06   610.1    2.9      53.770
2014    9       27     5  57    5.06   609.9    2.9      53.761
2014    9       27     6   3    5.06   609.8    2.9      53.752
2014    9       27     6   8    5.06   609.7    2.9      53.743
2014    9       27     6  13    5.06   609.6    2.9      53.734
2014    9       27     6  19    5.06   609.4    2.9      53.724
2014    9       27     6  24    5.06   609.3    2.9      53.714
2014    9       27     6  30    5.05   609.2    2.9      53.704
2014    9       27     6  35    5.05   609.0    2.9      53.693
2014    9       27     6  40    5.05   608.9    2.9      53.683
2014    9       27     6  46    5.05   608.8    2.9      53.672
2014    9       27     6  51    5.05   608.6    2.9      53.660
2014    9       27     6  56    5.05   608.5    2.9      53.648
2014    9       27     7   2    5.05   608.4    2.9      53.636
2014    9       27     7   7    5.05   608.2    2.9      53.624
2014    9       27     7  13    5.05   608.1    2.9      53.612
2014    9       27     7  18    5.05   608.0    2.9      53.599
2014    9       27     7  23    5.05   607.8    2.9      53.587
2014    9       27     7  29    5.05   607.7    2.9      53.574
2014    9       27     7  34    5.05   607.5    2.9      53.561
2014    9       27     7  40    5.05   607.4    2.9      53.548
2014    9       27     7  45    5.05   607.3    2.9      53.535
2014    9       27     7  50    5.05   607.1    2.9      53.521
2014    9       27     7  56    5.05   607.0    2.9      53.508
2014    9       27     8   1    5.05   606.9    2.9      53.495
2014    9       27     8   6    5.05   606.7    2.9      53.481
2014    9       27     8  12    5.05   606.6    2.9      53.467
2014    9       27     8  17    5.04   606.5    2.9      53.454
2014    9       27     8  23    5.04   606.3    3.0      53.440
2014    9       27     8  28    5.04   606.2    3.0      53.427
2014    9       27     8  33    5.04   606.0    3.0      53.413
2014    9       27     8  39    5.04   605.9    3.0      53.399
2014    9       27     8  44    5.04   605.8    3.0      53.386
2014    9       27     8  49    5.04   605.6    3.0      53.373
2014    9       27     8  55    5.04   605.5    3.0      53.359
2014    9       27     9   0    5.04   605.3    3.0      53.346
2014    9       27     9   6    5.04   605.2    3.0      53.333
2014    9       27     9  11    5.04   605.1    3.0      53.320
2014    9       27     9  16    5.04   604.9    3.0      53.308
2014    9       27     9  22    5.04   604.8    3.0      53.296
2014    9       27     9  27    5.04   604.6    3.0      53.284
2014    9       27     9  32    5.04   604.5    3.0      53.273
2014    9       27     9  38    5.04   604.3    3.0      53.261
2014    9       27     9  43    5.04   604.2    3.0      53.251
2014    9       27     9  49    5.04   604.1    3.0      53.241
2014    9       27     9  54    5.04   603.9    3.0      53.231
2014    9       27     9  59    5.04   603.8    3.0      53.223
2014    9       27    10   5    5.04   603.6    3.0      53.214
2014    9       27    10  10    5.04   603.5    3.0      53.206
2014    9       27    10  16    5.04   603.3    3.0      53.199
2014    9       27    10  21    5.04   603.2    3.0      53.193
2014    9       27    10  26    5.04   603.1    3.0      53.186
2014    9       27    10  32    5.04   602.9    3.0      53.181
2014    9       27    10  37    5.04   602.8    3.0      53.176
2014    9       27    10  42    5.04   602.6    3.0      53.171
2014    9       27    10  48    5.04   602.5    3.0      53.167
2014    9       27    10  53    5.04   602.3    3.0      53.163
2014    9       27    10  59    5.04   602.2    3.0      53.160
2014    9       27    11   4    5.04   602.0    3.0      53.157
2014    9       27    11   9    5.04   601.9    3.0      53.155
2014    9       27    11  15    5.04   601.8    3.0      53.153
2014    9       27    11  20    5.04   601.6    3.0      53.151
2014    9       27    11  25    5.04   601.5    3.0      53.150
2014    9       27    11  31    5.04   601.3    3.0      53.148
2014    9       27    11  36    5.04   601.2    3.0      53.147
2014    9       27    11  42    5.04   601.0    3.0      53.147
2014    9       27    11  47    5.04   600.9    3.0      53.147
2014    9       27    11  52    5.04   600.7    3.0      53.147
2014    9       27    11  58    5.04   600.6    3.0      53.147
2014    9       27    12   3    5.04   600.5    3.0      53.148
2014    9       27    12   8    5.04   600.3    3.0      53.148
2014    9       27    12  14    5.04   600.2    3.0      53.150
2014    9       27    12  19    5.04   600.0    3.0      53.151
2014    9       27    12  25    5.04   599.9    3.0      53.154
2014    9       27    12  30    5.04   599.7    3.0      53.156
2014    9       27    12  35    5.04   599.6    3.0      53.159
2014    9       27    12  41    5.04   599.5    3.0      53.162
2014    9       27    12  46    5.04   599.3    3.0      53.164
2014    9       27    12  51    5.04   599.2    3.0      53.168
2014    9       27    12  57    5.04   599.1    3.0      53.171
2014    9       27    13   2    5.04   598.9    3.0      53.174
2014    9       27    13   8    5.04   598.8    3.0      53.177
2014    9       27    13  13    5.04   598.7    3.0      53.181
2014    9       27    13  18    5.04   598.5    3.0      53.184
2014    9       27    13  24    5.04   598.4    3.0      53.188
2014    9       27    13  29    5.04   598.3    3.0      53.191
2014    9       27    13  34    5.04   598.1    3.0      53.194
2014    9       27    13  40    5.04   598.0    3.0      53.198
2014    9       27    13  45    5.04   597.9    3.0      53.201
2014    9       27    13  51    5.04   597.8    3.0      53.205
2014    9       27    13  56    5.04   597.6    3.1      53.208
2014    9       27    14   1    5.04   597.5    3.1      53.211
2014    9       27    14   7    5.04   597.4    3.1      53.213
2014    9       27    14  12    5.04   597.3    3.1      53.215
2014    9       27    14  17    5.04   597.1    3.1      53.217
2014    9       27    14  23    5.04   597.0    3.1      53.219
2014    9       27    14  28    5.04   596.9    3.1      53.220
2014    9       27    14  34    5.04   596.8    3.1      53.221
2014    9       27    14  39    5.04   596.6    3.1      53.222
2014    9       27    14  44    5.04   596.5    3.1      53.222
2014    9       27    14  50    5.04   596.4    3.1      53.221
2014    9       27    14  55    5.04   596.3    3.1      53.221
2014    9       27    15   1    5.04   596.1    3.1      53.220
2014    9       27    15   6    5.04   596.0    3.1      53.218
2014    9       27    15  11    5.04   595.9    3.1      53.216
2014    9       27    15  17    5.04   595.8    3.1      53.214
2014    9       27    15  22    5.04   595.6    3.1      53.211
2014    9       27    15  27    5.04   595.5    3.1      53.208
2014    9       27    15  33    5.04   595.4    3.1      53.204
2014    9       27    15  38    5.04   595.3    3.1      53.200
2014    9       27    15  44    5.04   595.1    3.1      53.196
2014    9       27    15  49    5.04   595.0    3.1      53.191
2014    9       27    15  54    5.04   594.9    3.1      53.187
2014    9       27    16   0    5.04   594.8    3.1      53.181
2014    9       27    16   5    5.04   594.6    3.1      53.176
2014    9       27    16  10    5.04   594.5    3.1      53.171
2014    9       27    16  16    5.04   594.4    3.1      53.165
2014    9       27    16  21    5.04   594.3    3.1      53.160
2014    9       27    16  27    5.04   594.1    3.1      53.154
2014    9       27    16  32    5.04   594.0    3.1      53.148
2014    9       27    16  37    5.04   593.9    3.1      53.143
2014    9       27    16  43    5.04   593.8    3.1      53.138
2014    9       27    16  48    5.04   593.6    3.1      53.132
2014    9       27    16  53    5.04   593.5    3.1      53.127
2014    9       27    16  59    5.04   593.4    3.1      53.123
2014    9       27    17   4    5.04   593.3    3.1      53.118
2014    9       27    17  10    5.04   593.1    3.1      53.114
2014    9       27    17  15    5.04   593.0    3.1      53.110
2014    9       27    17  20    5.04   592.9    3.1      53.106
2014    9       27    17  26    5.04   592.8    3.1      53.103
2014    9       27    17  31    5.04   592.6    3.1      53.100
2014    9       27    17  37    5.04   592.5    3.1      53.097
2014    9       27    17  42    5.04   592.4    3.1      53.095
2014    9       27    17  47    5.04   592.3    3.1      53.093
2014    9       27    17  53    5.04   592.1    3.1      53.091
2014    9       27    17  58    5.04   592.0    3.1      53.089
2014    9       27    18   3    5.04   591.9    3.1      53.088
2014    9       27    18   9    5.04   591.8    3.1      53.087
2014    9       27    18  14    5.04   591.7    3.1      53.086
2014    9       27    18  20    5.04   591.5    3.1      53.085
2014    9       27    18  25    5.04   591.4    3.1      53.084
2014    9       27    18  30    5.04   591.3    3.1      53.084
2014    9       27    18  36    5.04   591.2    3.1      53.083
2014    9       27    18  41    5.04   591.1    3.1      53.083
2014    9       27    18  46    5.04   590.9    3.1      53.082
2014    9       27    18  52    5.04   590.8    3.1      53.082
2014    9       27    18  57    5.04   590.7    3.1      53.082
2014    9       27    19   3    5.04   590.6    3.1      53.082
2014    9       27    19   8    5.04   590.4    3.1      53.081
2014    9       27    19  13    5.04   590.3    3.1      53.082
2014    9       27    19  19    5.04   590.2    3.1      53.082
2014    9       27    19  24    5.04   590.1    3.1      53.082
2014    9       27    19  29    5.04   590.0    3.1      53.082
2014    9       27    19  35    5.04   589.8    3.2      53.083
2014    9       27    19  40    5.04   589.7    3.2      53.084
2014    9       27    19  46    5.04   589.6    3.2      53.085
2014    9       27    19  51    5.04   589.5    3.2      53.086
2014    9       27    19  56    5.04   589.4    3.2      53.087
2014    9       27    20   2    5.05   589.2    3.2      53.089
2014    9       27    20   7    5.05   589.1    3.2      53.090
2014    9       27    20  12    5.05   589.0    3.2      53.093
2014    9       27    20  18    5.05   588.9    3.2      53.095
2014    9       27    20  23    5.05   588.8    3.2      53.098
2014    9       27    20  29    5.05   588.6    3.2      53.100
2014    9       27    20  34    5.05   588.5    3.2      53.104
2014    9       27    20  39    5.05   588.4    3.2      53.107
2014    9       27    20  45    5.05   588.3    3.2      53.111
2014    9       27    20  50    5.05   588.2    3.2      53.115
2014    9       27    20  55    5.05   588.1    3.2      53.119
2014    9       27    21   1    5.05   587.9    3.2      53.123
2014    9       27    21   6    5.05   587.8    3.2      53.128
2014    9       27    21  12    5.05   587.7    3.2      53.133
2014    9       27    21  17    5.05   587.6    3.2      53.137
2014    9       27    21  22    5.05   587.5    3.2      53.142
2014    9       27    21  28    5.05   587.4    3.2      53.146
2014    9       27    21  33    5.05   587.3    3.2      53.151
2014    9       27    21  38    5.05   587.1    3.2      53.155
2014    9       27    21  44    5.05   587.0    3.2      53.159
2014    9       27    21  49    5.05   586.9    3.2      53.164
2014    9       27    21  55    5.05   586.8    3.2      53.168
2014    9       27    22   0    5.05   586.7    3.2      53.172
2014    9       27    22   5    5.05   586.6    3.2      53.176
2014    9       27    22  11    5.05   586.5    3.2      53.180
2014    9       27    22  16    5.05   586.4    3.2      53.184
2014    9       27    22  22    5.05   586.2    3.2      53.187
2014    9       27    22  27    5.05   586.1    3.2      53.191
2014    9       27    22  32    5.05   586.0    3.2      53.194
2014    9       27    22  38    5.05   585.9    3.2      53.197
2014    9       27    22  43    5.05   585.8    3.2      53.199
2014    9       27    22  48    5.05   585.7    3.2      53.202
2014    9       27    22  54    5.05   585.6    3.2      53.204
2014    9       27    22  59    5.05   585.5    3.2      53.206
2014    9       27    23   5    5.05   585.4    3.2      53.207
2014    9       27    23  10    5.05   585.2    3.2      53.208
2014    9       27    23  15    5.05   585.1    3.2      53.209
2014    9       27    23  21    5.05   585.0    3.2      53.210
2014    9       27    23  26    5.05   584.9    3.2      53.211
2014    9       27    23  31    5.05   584.8    3.2      53.211
2014    9       27    23  37    5.05   584.7    3.2      53.211
2014    9       27    23  42    5.05   584.6    3.2      53.210
2014    9       27    23  48    5.05   584.5    3.2      53.210
2014    9       27    23  53    5.05   584.3    3.2      53.209
2014    9       27    23  58    5.05   584.2    3.2      53.208
2014    9       28     0   4    5.05   584.1    3.2      53.207
2014    9       28     0   9    5.05   584.0    3.2      53.206
2014    9       28     0  14    5.05   583.9    3.2      53.204
2014    9       28     0  20    5.05   583.8    3.2      53.203
2014    9       28     0  25    5.05   583.7    3.2      53.201
2014    9       28     0  31    5.05   583.6    3.2      53.200
2014    9       28     0  36    5.05   583.5    3.2      53.198
2014    9       28     0  41    5.05   583.4    3.2      53.196
2014    9       28     0  47    5.06   583.2    3.2      53.195
2014    9       28     0  52    5.06   583.1    3.3      53.193
2014    9       28     0  57    5.06   583.0    3.3      53.191
2014    9       28     1   3    5.06   582.9    3.3      53.189
2014    9       28     1   8    5.06   582.8    3.3      53.188
2014    9       28     1  14    5.06   582.7    3.3      53.186
2014    9       28     1  19    5.06   582.6    3.3      53.184
2014    9       28     1  24    5.06   582.5    3.3      53.182
2014    9       28     1  30    5.06   582.4    3.3      53.181
2014    9       28     1  35    5.06   582.3    3.3      53.179
2014    9       28     1  41    5.06   582.1    3.3      53.177
2014    9       28     1  46    5.06   582.0    3.3      53.176
2014    9       28     1  51    5.06   581.9    3.3      53.174
2014    9       28     1  57    5.06   581.8    3.3      53.173
2014    9       28     2   2    5.06   581.7    3.3      53.172
2014    9       28     2   7    5.06   581.6    3.3      53.170
2014    9       28     2  13    5.06   581.5    3.3      53.169
2014    9       28     2  18    5.06   581.4    3.3      53.168
2014    9       28     2  24    5.06   581.3    3.3      53.167
2014    9       28     2  29    5.06   581.2    3.3      53.166
2014    9       28     2  34    5.06   581.0    3.3      53.166
2014    9       28     2  40    5.06   580.9    3.3      53.165
2014    9       28     2  45    5.06   580.8    3.3      53.165
2014    9       28     2  50    5.06   580.7    3.3      53.164
2014    9       28     2  56    5.06   580.6    3.3      53.164
2014    9       28     3   1    5.06   580.5    3.3      53.164
2014    9       28     3   7    5.06   580.4    3.3      53.164
2014    9       28     3  12    5.06   580.3    3.3      53.165
2014    9       28     3  17    5.06   580.2    3.3      53.165
2014    9       28     3  23    5.06   580.1    3.3      53.166
2014    9       28     3  28    5.06   580.0    3.3      53.167
2014    9       28     3  33    5.06   579.8    3.3      53.168
2014    9       28     3  39    5.06   579.7    3.3      53.170
2014    9       28     3  44    5.06   579.6    3.3      53.171
2014    9       28     3  50    5.06   579.5    3.3      53.173
2014    9       28     3  55    5.06   579.4    3.3      53.175
2014    9       28     4   0    5.06   579.3    3.3      53.178
2014    9       28     4   6    5.06   579.2    3.3      53.180
2014    9       28     4  11    5.06   579.1    3.3      53.182
2014    9       28     4  16    5.06   579.0    3.3      53.185
2014    9       28     4  22    5.06   578.9    3.3      53.188
2014    9       28     4  27    5.06   578.8    3.3      53.190
2014    9       28     4  33    5.06   578.7    3.3      53.193
2014    9       28     4  38    5.06   578.6    3.3      53.196
2014    9       28     4  43    5.06   578.5    3.3      53.198
2014    9       28     4  49    5.06   578.4    3.3      53.201
2014    9       28     4  54    5.06   578.3    3.3      53.203
2014    9       28     4  59    5.06   578.2    3.3      53.206
2014    9       28     5   5    5.06   578.0    3.3      53.208
2014    9       28     5  10    5.06   577.9    3.3      53.210
2014    9       28     5  16    5.06   577.8    3.3      53.212
2014    9       28     5  21    5.06   577.7    3.3      53.213
2014    9       28     5  26    5.06   577.6    3.3      53.215
2014    9       28     5  32    5.06   577.5    3.3      53.216
2014    9       28     5  37    5.06   577.4    3.3      53.217
2014    9       28     5  43    5.06   577.3    3.3      53.217
2014    9       28     5  48    5.06   577.2    3.3      53.218
2014    9       28     5  53    5.06   577.1    3.3      53.218
2014    9       28     5  59    5.06   577.0    3.3      53.217
2014    9       28     6   4    5.06   576.9    3.3      53.216
2014    9       28     6   9    5.06   576.8    3.3      53.215
2014    9       28     6  15    5.06   576.7    3.3      53.214
2014    9       28     6  20    5.06   576.5    3.3      53.212
2014    9       28     6  26    5.06   576.4    3.3      53.210
2014    9       28     6  31    5.06   576.3    3.3      53.208
2014    9       28     6  36    5.06   576.2    3.4      53.205
2014    9       28     6  42    5.06   576.1    3.4      53.202
2014    9       28     6  47    5.06   576.0    3.4      53.199
2014    9       28     6  52    5.06   575.9    3.4      53.196
2014    9       28     6  58    5.06   575.8    3.4      53.192
2014    9       28     7   3    5.06   575.7    3.4      53.188
2014    9       28     7   9    5.06   575.6    3.4      53.184
2014    9       28     7  14    5.06   575.4    3.4      53.180
2014    9       28     7  19    5.06   575.3    3.4      53.175
2014    9       28     7  25    5.06   575.2    3.4      53.171
2014    9       28     7  30    5.06   575.1    3.4      53.166
2014    9       28     7  35    5.06   575.0    3.4      53.161
2014    9       28     7  41    5.06   574.9    3.4      53.157
2014    9       28     7  46    5.06   574.8    3.4      53.152
2014    9       28     7  52    5.06   574.7    3.4      53.147
2014    9       28     7  57    5.06   574.5    3.4      53.142
2014    9       28     8   2    5.06   574.4    3.4      53.137
2014    9       28     8   8    5.06   574.3    3.4      53.132
2014    9       28     8  13    5.06   574.2    3.4      53.127
2014    9       28     8  18    5.06   574.1    3.4      53.121
2014    9       28     8  24    5.06   574.0    3.4      53.116
2014    9       28     8  29    5.06   573.9    3.4      53.111
2014    9       28     8  35    5.06   573.8    3.4      53.106
2014    9       28     8  40    5.06   573.7    3.4      53.101
2014    9       28     8  45    5.06   573.6    3.4      53.096
2014    9       28     8  51    5.06   573.4    3.4      53.092
2014    9       28     8  56    5.06   573.3    3.4      53.087
2014    9       28     9   2    5.06   573.2    3.4      53.082
2014    9       28     9   7    5.06   573.1    3.4      53.077
2014    9       28     9  12    5.06   573.0    3.4      53.072
2014    9       28     9  18    5.06   572.9    3.4      53.068
2014    9       28     9  23    5.06   572.8    3.4      53.063
2014    9       28     9  28    5.06   572.7    3.4      53.059
2014    9       28     9  34    5.06   572.6    3.4      53.054
2014    9       28     9  39    5.05   572.4    3.4      53.050
2014    9       28     9  45    5.05   572.3    3.4      53.045
2014    9       28     9  50    5.05   572.2    3.4      53.041
2014    9       28     9  55    5.05   572.1    3.4      53.037
2014    9       28    10   1    5.05   572.0    3.4      53.033
2014    9       28    10   6    5.05   571.9    3.4      53.029
2014    9       28    10  11    5.05   571.8    3.4      53.025
2014    9       28    10  17    5.05   571.7    3.4      53.021
2014    9       28    10  22    5.05   571.6    3.4      53.017
2014    9       28    10  28    5.05   571.4    3.4      53.014
2014    9       28    10  33    5.05   571.3    3.4      53.010
2014    9       28    10  38    5.05   571.2    3.4      53.007
2014    9       28    10  44    5.05   571.1    3.4      53.004
2014    9       28    10  49    5.05   571.0    3.4      53.002
2014    9       28    10  54    5.05   570.9    3.4      52.999
2014    9       28    11   0    5.05   570.8    3.4      52.997
2014    9       28    11   5    5.05   570.7    3.4      52.995
2014    9       28    11  11    5.05   570.6    3.4      52.993
2014    9       28    11  16    5.05   570.5    3.4      52.991
2014    9       28    11  21    5.05   570.3    3.4      52.989
2014    9       28    11  27    5.05   570.2    3.4      52.988
2014    9       28    11  32    5.05   570.1    3.4      52.987
2014    9       28    11  37    5.05   570.0    3.4      52.986
2014    9       28    11  43    5.05   569.9    3.4      52.984
2014    9       28    11  48    5.05   569.8    3.4      52.983
2014    9       28    11  54    5.05   569.7    3.4      52.982
2014    9       28    11  59    5.05   569.6    3.4      52.982
2014    9       28    12   4    5.05   569.5    3.4      52.981
2014    9       28    12  10    5.05   569.4    3.4      52.980
2014    9       28    12  15    5.05   569.3    3.4      52.979
2014    9       28    12  20    5.05   569.2    3.4      52.979
2014    9       28    12  26    5.05   569.0    3.4      52.978
2014    9       28    12  31    5.05   568.9    3.4      52.978
2014    9       28    12  37    5.05   568.8    3.4      52.977
2014    9       28    12  42    5.05   568.7    3.4      52.977
2014    9       28    12  47    5.05   568.6    3.4      52.976
2014    9       28    12  53    5.05   568.5    3.4      52.975
2014    9       28    12  58    5.05   568.4    3.4      52.975
2014    9       28    13   4    5.05   568.3    3.4      52.974
2014    9       28    13   9    5.05   568.2    3.4      52.973
2014    9       28    13  14    5.05   568.1    3.4      52.972
2014    9       28    13  20    5.05   568.0    3.4      52.971
2014    9       28    13  25    5.05   567.9    3.4      52.969
2014    9       28    13  30    5.05   567.7    3.4      52.968
2014    9       28    13  36    5.05   567.6    3.4      52.966
2014    9       28    13  41    5.05   567.5    3.4      52.964
2014    9       28    13  47    5.05   567.4    3.4      52.962
2014    9       28    13  52    5.05   567.3    3.5      52.959
2014    9       28    13  57    5.04   567.2    3.5      52.956
2014    9       28    14   3    5.04   567.1    3.5      52.953
2014    9       28    14   8    5.04   567.0    3.5      52.950
2014    9       28    14  13    5.04   566.9    3.5      52.946
2014    9       28    14  19    5.04   566.7    3.5      52.942
2014    9       28    14  24    5.04   566.6    3.5      52.938
2014    9       28    14  30    5.04   566.5    3.5      52.934
2014    9       28    14  35    5.04   566.4    3.5      52.930
2014    9       28    14  40    5.04   566.3    3.5      52.925
2014    9       28    14  46    5.04   566.2    3.5      52.920
2014    9       28    14  51    5.04   566.1    3.5      52.916
2014    9       28    14  56    5.04   566.0    3.5      52.910
2014    9       28    15   2    5.04   565.8    3.5      52.905
2014    9       28    15   7    5.04   565.7    3.5      52.900
2014    9       28    15  13    5.04   565.6    3.5      52.895
2014    9       28    15  18    5.04   565.5    3.5      52.889
2014    9       28    15  23    5.04   565.4    3.5      52.884
2014    9       28    15  29    5.04   565.3    3.5      52.878
2014    9       28    15  34    5.04   565.2    3.5      52.872
2014    9       28    15  39    5.04   565.0    3.5      52.866
2014    9       28    15  45    5.04   564.9    3.5      52.859
2014    9       28    15  50    5.04   564.8    3.5      52.853
2014    9       28    15  56    5.04   564.7    3.5      52.846
2014    9       28    16   1    5.04   564.6    3.5      52.839
2014    9       28    16   6    5.04   564.5    3.5      52.831
2014    9       28    16  12    5.04   564.4    3.5      52.824
2014    9       28    16  17    5.04   564.3    3.5      52.816
2014    9       28    16  23    5.04   564.1    3.5      52.808
2014    9       28    16  28    5.04   564.0    3.5      52.800
2014    9       28    16  33    5.03   563.9    3.5      52.792
2014    9       28    16  39    5.03   563.8    3.5      52.783
2014    9       28    16  44    5.03   563.7    3.5      52.774
2014    9       28    16  49    5.03   563.6    3.5      52.765
2014    9       28    16  55    5.03   563.5    3.5      52.756
2014    9       28    17   0    5.03   563.3    3.5      52.747
2014    9       28    17   6    5.03   563.2    3.5      52.737
2014    9       28    17  11    5.03   563.1    3.5      52.728
2014    9       28    17  16    5.03   563.0    3.5      52.718
2014    9       28    17  22    5.03   562.9    3.5      52.709
2014    9       28    17  27    5.03   562.8    3.5      52.700
2014    9       28    17  32    5.03   562.6    3.5      52.690
2014    9       28    17  38    5.03   562.5    3.5      52.681
2014    9       28    17  43    5.03   562.4    3.5      52.671
2014    9       28    17  49    5.03   562.3    3.5      52.662
2014    9       28    17  54    5.03   562.2    3.5      52.653
2014    9       28    17  59    5.03   562.1    3.5      52.644
2014    9       28    18   5    5.03   562.0    3.5      52.635
2014    9       28    18  10    5.03   561.8    3.5      52.627
2014    9       28    18  15    5.03   561.7    3.5      52.618
2014    9       28    18  21    5.03   561.6    3.5      52.610
2014    9       28    18  26    5.03   561.5    3.5      52.602
2014    9       28    18  32    5.03   561.4    3.5      52.594
2014    9       28    18  37    5.02   561.3    3.5      52.587
2014    9       28    18  42    5.02   561.1    3.5      52.579
2014    9       28    18  48    5.02   561.0    3.5      52.572
2014    9       28    18  53    5.02   560.9    3.5      52.565
2014    9       28    18  58    5.02   560.8    3.5      52.559
2014    9       28    19   4    5.02   560.7    3.5      52.552
2014    9       28    19   9    5.02   560.6    3.5      52.546
2014    9       28    19  15    5.02   560.5    3.5      52.540
2014    9       28    19  20    5.02   560.3    3.5      52.534
2014    9       28    19  25    5.02   560.2    3.5      52.529
2014    9       28    19  31    5.02   560.1    3.5      52.523
2014    9       28    19  36    5.02   560.0    3.5      52.518
2014    9       28    19  41    5.02   559.9    3.5      52.513
2014    9       28    19  47    5.02   559.8    3.5      52.508
2014    9       28    19  52    5.02   559.7    3.5      52.504
2014    9       28    19  58    5.02   559.6    3.5      52.499
2014    9       28    20   3    5.02   559.4    3.5      52.495
2014    9       28    20   8    5.02   559.3    3.5      52.491
2014    9       28    20  14    5.02   559.2    3.5      52.487
2014    9       28    20  19    5.02   559.1    3.5      52.483
2014    9       28    20  25    5.02   559.0    3.5      52.479
2014    9       28    20  30    5.02   558.9    3.5      52.475
2014    9       28    20  35    5.02   558.8    3.5      52.471
2014    9       28    20  41    5.02   558.7    3.5      52.467
2014    9       28    20  46    5.01   558.5    3.5      52.463
2014    9       28    20  51    5.01   558.4    3.5      52.459
2014    9       28    20  57    5.01   558.3    3.5      52.455
2014    9       28    21   2    5.01   558.2    3.5      52.451
2014    9       28    21   8    5.01   558.1    3.5      52.447
2014    9       28    21  13    5.01   558.0    3.5      52.443
2014    9       28    21  18    5.01   557.9    3.5      52.438
2014    9       28    21  24    5.01   557.7    3.5      52.434
2014    9       28    21  29    5.01   557.6    3.5      52.429
2014    9       28    21  34    5.01   557.5    3.5      52.425
2014    9       28    21  40    5.01   557.4    3.5      52.420
2014    9       28    21  45    5.01   557.3    3.5      52.416
2014    9       28    21  51    5.01   557.2    3.5      52.411
2014    9       28    21  56    5.01   557.1    3.5      52.406
2014    9       28    22   1    5.01   556.9    3.5      52.401
2014    9       28    22   7    5.01   556.8    3.5      52.397
2014    9       28    22  12    5.01   556.7    3.5      52.392
2014    9       28    22  17    5.01   556.6    3.5      52.386
2014    9       28    22  23    5.01   556.5    3.5      52.381
2014    9       28    22  28    5.01   556.4    3.5      52.376
2014    9       28    22  34    5.01   556.3    3.5      52.371
2014    9       28    22  39    5.00   556.1    3.5      52.365
2014    9       28    22  44    5.00   556.0    3.6      52.360
2014    9       28    22  50    5.00   555.9    3.6      52.354
2014    9       28    22  55    5.00   555.8    3.6      52.349
2014    9       28    23   0    5.00   555.7    3.6      52.343
2014    9       28    23   6    5.00   555.6    3.6      52.337
2014    9       28    23  11    5.00   555.4    3.6      52.331
2014    9       28    23  17    5.00   555.3    3.6      52.325
2014    9       28    23  22    5.00   555.2    3.6      52.318
2014    9       28    23  27    5.00   555.1    3.6      52.312
2014    9       28    23  33    5.00   555.0    3.6      52.305
2014    9       28    23  38    5.00   554.9    3.6      52.298
2014    9       28    23  44    5.00   554.7    3.6      52.292
2014    9       28    23  49    5.00   554.6    3.6      52.285
2014    9       28    23  54    5.00   554.5    3.6      52.277
2014    9       29     0   0    5.00   554.4    3.6      52.270
2014    9       29     0   5    5.00   554.3    3.6      52.262
2014    9       29     0  10    5.00   554.1    3.6      52.255
2014    9       29     0  16    5.00   554.0    3.6      52.247
2014    9       29     0  21    4.99   553.9    3.6      52.239
2014    9       29     0  27    4.99   553.8    3.6      52.230
2014    9       29     0  32    4.99   553.7    3.6      52.222
2014    9       29     0  37    4.99   553.6    3.6      52.214
2014    9       29     0  43    4.99   553.4    3.6      52.205
2014    9       29     0  48    4.99   553.3    3.6      52.196
2014    9       29     0  53    4.99   553.2    3.6      52.188
2014    9       29     0  59    4.99   553.1    3.6      52.179
2014    9       29     1   4    4.99   553.0    3.6      52.170
2014    9       29     1  10    4.99   552.8    3.6      52.161
2014    9       29     1  15    4.99   552.7    3.6      52.151
2014    9       29     1  20    4.99   552.6    3.6      52.142
2014    9       29     1  26    4.99   552.5    3.6      52.133
2014    9       29     1  31    4.99   552.4    3.6      52.123
2014    9       29     1  36    4.99   552.3    3.6      52.114
2014    9       29     1  42    4.99   552.1    3.6      52.105
2014    9       29     1  47    4.98   552.0    3.6      52.095
2014    9       29     1  53    4.98   551.9    3.6      52.085
2014    9       29     1  58    4.98   551.8    3.6      52.076
2014    9       29     2   3    4.98   551.7    3.6      52.066
2014    9       29     2   9    4.98   551.5    3.6      52.056
2014    9       29     2  14    4.98   551.4    3.6      52.046
2014    9       29     2  19    4.98   551.3    3.6      52.036
2014    9       29     2  25    4.98   551.2    3.6      52.026
2014    9       29     2  30    4.98   551.1    3.6      52.016
2014    9       29     2  36    4.98   550.9    3.6      52.006
2014    9       29     2  41    4.98   550.8    3.6      51.996
2014    9       29     2  46    4.98   550.7    3.6      51.985
2014    9       29     2  52    4.98   550.6    3.6      51.975
2014    9       29     2  57    4.98   550.5    3.6      51.965
2014    9       29     3   2    4.98   550.4    3.6      51.954
2014    9       29     3   8    4.98   550.2    3.6      51.944
2014    9       29     3  13    4.98   550.1    3.6      51.933
2014    9       29     3  19    4.97   550.0    3.6      51.922
2014    9       29     3  24    4.97   549.9    3.6      51.912
2014    9       29     3  29    4.97   549.8    3.6      51.901
2014    9       29     3  35    4.97   549.6    3.6      51.891
2014    9       29     3  40    4.97   549.5    3.6      51.880
2014    9       29     3  46    4.97   549.4    3.6      51.870
2014    9       29     3  51    4.97   549.3    3.6      51.860
2014    9       29     3  56    4.97   549.2    3.6      51.850
2014    9       29     4   2    4.97   549.0    3.6      51.840
2014    9       29     4   7    4.97   548.9    3.6      51.830
2014    9       29     4  12    4.97   548.8    3.6      51.821
2014    9       29     4  18    4.97   548.7    3.6      51.811
2014    9       29     4  23    4.97   548.6    3.6      51.802
2014    9       29     4  29    4.97   548.4    3.6      51.793
2014    9       29     4  34    4.97   548.3    3.6      51.784
2014    9       29     4  39    4.97   548.2    3.6      51.776
2014    9       29     4  45    4.97   548.1    3.6      51.767
2014    9       29     4  50    4.96   548.0    3.6      51.759
2014    9       29     4  55    4.96   547.9    3.6      51.751
2014    9       29     5   1    4.96   547.7    3.6      51.744
2014    9       29     5   6    4.96   547.6    3.6      51.736
2014    9       29     5  12    4.96   547.5    3.6      51.729
2014    9       29     5  17    4.96   547.4    3.6      51.722
2014    9       29     5  22    4.96   547.3    3.6      51.715
2014    9       29     5  28    4.96   547.1    3.6      51.709
2014    9       29     5  33    4.96   547.0    3.6      51.702
2014    9       29     5  38    4.96   546.9    3.6      51.696
2014    9       29     5  44    4.96   546.8    3.6      51.690
2014    9       29     5  49    4.96   546.7    3.6      51.684
2014    9       29     5  55    4.96   546.6    3.6      51.678
2014    9       29     6   0    4.96   546.4    3.6      51.672
2014    9       29     6   5    4.96   546.3    3.6      51.667
2014    9       29     6  11    4.96   546.2    3.6      51.661
2014    9       29     6  16    4.96   546.1    3.6      51.655
2014    9       29     6  21    4.96   546.0    3.6      51.650
2014    9       29     6  27    4.95   545.9    3.6      51.644
2014    9       29     6  32    4.95   545.7    3.6      51.638
2014    9       29     6  38    4.95   545.6    3.6      51.632
2014    9       29     6  43    4.95   545.5    3.6      51.625
2014    9       29     6  48    4.95   545.4    3.6      51.619
2014    9       29     6  54    4.95   545.3    3.6      51.612
2014    9       29     6  59    4.95   545.1    3.6      51.605
2014    9       29     7   5    4.95   545.0    3.6      51.598
2014    9       29     7  10    4.95   544.9    3.6      51.591
2014    9       29     7  15    4.95   544.8    3.6      51.583
2014    9       29     7  21    4.95   544.7    3.6      51.575
2014    9       29     7  26    4.95   544.6    3.6      51.567
2014    9       29     7  31    4.95   544.4    3.6      51.559
2014    9       29     7  37    4.95   544.3    3.6      51.550
2014    9       29     7  42    4.95   544.2    3.6      51.541
2014    9       29     7  48    4.94   544.1    3.6      51.532
2014    9       29     7  53    4.94   544.0    3.6      51.523
2014    9       29     7  58    4.94   543.8    3.6      51.513
2014    9       29     8   4    4.94   543.7    3.6      51.503
2014    9       29     8   9    4.94   543.6    3.6      51.493
2014    9       29     8  14    4.94   543.5    3.6      51.483
2014    9       29     8  20    4.94   543.3    3.6      51.473
2014    9       29     8  25    4.94   543.2    3.6      51.462
2014    9       29     8  31    4.94   543.1    3.6      51.452
2014    9       29     8  36    4.94   543.0    3.6      51.441
2014    9       29     8  41    4.94   542.9    3.6      51.430
2014    9       29     8  47    4.94   542.7    3.6      51.419
2014    9       29     8  52    4.94   542.6    3.6      51.408
2014    9       29     8  57    4.94   542.5    3.7      51.396
2014    9       29     9   3    4.93   542.4    3.7      51.385
2014    9       29     9   8    4.93   542.2    3.7      51.373
2014    9       29     9  14    4.93   542.1    3.7      51.362
2014    9       29     9  19    4.93   542.0    3.7      51.350
2014    9       29     9  24    4.93   541.9    3.7      51.338
2014    9       29     9  30    4.93   541.8    3.7      51.326
2014    9       29     9  35    4.93   541.6    3.7      51.314
2014    9       29     9  40    4.93   541.5    3.7      51.302
2014    9       29     9  46    4.93   541.4    3.7      51.290
2014    9       29     9  51    4.93   541.3    3.7      51.278
2014    9       29     9  57    4.93   541.1    3.7      51.266
2014    9       29    10   2    4.93   541.0    3.7      51.254
2014    9       29    10   7    4.93   540.9    3.7      51.242
2014    9       29    10  13    4.93   540.8    3.7      51.230
2014    9       29    10  18    4.92   540.6    3.7      51.218
2014    9       29    10  23    4.92   540.5    3.7      51.206
2014    9       29    10  29    4.92   540.4    3.7      51.194
2014    9       29    10  34    4.92   540.3    3.7      51.183
2014    9       29    10  40    4.92   540.1    3.7      51.171
2014    9       29    10  45    4.92   540.0    3.7      51.160
2014    9       29    10  50    4.92   539.9    3.7      51.149
2014    9       29    10  56    4.92   539.8    3.7      51.138
2014    9       29    11   1    4.92   539.6    3.7      51.127
2014    9       29    11   7    4.92   539.5    3.7      51.116
2014    9       29    11  12    4.92   539.4    3.7      51.106
2014    9       29    11  17    4.92   539.3    3.7      51.096
2014    9       29    11  23    4.92   539.1    3.7      51.086
2014    9       29    11  28    4.92   539.0    3.7      51.076
2014    9       29    11  33    4.92   538.9    3.7      51.067
2014    9       29    11  39    4.91   538.8    3.7      51.058
2014    9       29    11  44    4.91   538.6    3.7      51.049
2014    9       29    11  50    4.91   538.5    3.7      51.040
2014    9       29    11  55    4.91   538.4    3.7      51.031
2014    9       29    12   0    4.91   538.3    3.7      51.023
2014    9       29    12   6    4.91   538.2    3.7      51.014
2014    9       29    12  11    4.91   538.0    3.7      51.006
2014    9       29    12  16    4.91   537.9    3.7      50.997
2014    9       29    12  22    4.91   537.8    3.7      50.989
2014    9       29    12  27    4.91   537.7    3.7      50.981
2014    9       29    12  33    4.91   537.6    3.7      50.973
2014    9       29    12  38    4.91   537.4    3.7      50.964
2014    9       29    12  43    4.91   537.3    3.7      50.956
2014    9       29    12  49    4.91   537.2    3.7      50.948
2014    9       29    12  54    4.91   537.1    3.7      50.939
2014    9       29    12  59    4.90   537.0    3.7      50.931
2014    9       29    13   5    4.90   536.8    3.7      50.922
2014    9       29    13  10    4.90   536.7    3.7      50.913
2014    9       29    13  16    4.90   536.6    3.7      50.904
2014    9       29    13  21    4.90   536.5    3.7      50.895
2014    9       29    13  26    4.90   536.4    3.7      50.886
2014    9       29    13  32    4.90   536.2    3.7      50.876
2014    9       29    13  37    4.90   536.1    3.7      50.867
2014    9       29    13  42    4.90   536.0    3.7      50.856
2014    9       29    13  48    4.90   535.9    3.7      50.846
2014    9       29    13  53    4.90   535.8    3.7      50.836
2014    9       29    13  59    4.90   535.6    3.7      50.825
2014    9       29    14   4    4.90   535.5    3.7      50.814
2014    9       29    14   9    4.90   535.4    3.7      50.803
2014    9       29    14  15    4.89   535.3    3.7      50.792
2014    9       29    14  20    4.89   535.2    3.7      50.780
2014    9       29    14  26    4.89   535.0    3.7      50.768
2014    9       29    14  31    4.89   534.9    3.7      50.756
2014    9       29    14  36    4.89   534.8    3.7      50.743
2014    9       29    14  42    4.89   534.7    3.7      50.730
2014    9       29    14  47    4.89   534.5    3.7      50.717
2014    9       29    14  52    4.89   534.4    3.7      50.704
2014    9       29    14  58    4.89   534.3    3.7      50.690
2014    9       29    15   3    4.89   534.2    3.7      50.676
2014    9       29    15   9    4.89   534.0    3.7      50.662
2014    9       29    15  14    4.89   533.9    3.7      50.648
2014    9       29    15  19    4.89   533.8    3.7      50.633
2014    9       29    15  25    4.88   533.7    3.7      50.619
2014    9       29    15  30    4.88   533.5    3.7      50.604
2014    9       29    15  35    4.88   533.4    3.7      50.589
2014    9       29    15  41    4.88   533.3    3.7      50.575
2014    9       29    15  46    4.88   533.2    3.7      50.560
2014    9       29    15  52    4.88   533.0    3.7      50.545
2014    9       29    15  57    4.88   532.9    3.7      50.530
2014    9       29    16   2    4.88   532.8    3.7      50.515
2014    9       29    16   8    4.88   532.6    3.7      50.501
2014    9       29    16  13    4.88   532.5    3.7      50.486
2014    9       29    16  18    4.88   532.4    3.7      50.472
2014    9       29    16  24    4.88   532.2    3.7      50.458
2014    9       29    16  29    4.87   532.1    3.7      50.444
2014    9       29    16  35    4.87   532.0    3.7      50.431
2014    9       29    16  40    4.87   531.8    3.7      50.417
2014    9       29    16  45    4.87   531.7    3.7      50.404
2014    9       29    16  51    4.87   531.6    3.7      50.392
2014    9       29    16  56    4.87   531.5    3.7      50.380
2014    9       29    17   1    4.87   531.3    3.7      50.368
2014    9       29    17   7    4.87   531.2    3.7      50.357
2014    9       29    17  12    4.87   531.1    3.7      50.346
2014    9       29    17  18    4.87   530.9    3.7      50.335
2014    9       29    17  23    4.87   530.8    3.7      50.325
2014    9       29    17  28    4.87   530.7    3.7      50.315
2014    9       29    17  34    4.87   530.6    3.7      50.305
2014    9       29    17  39    4.87   530.4    3.7      50.296
2014    9       29    17  44    4.86   530.3    3.7      50.287
2014    9       29    17  50    4.86   530.2    3.7      50.278
2014    9       29    17  55    4.86   530.1    3.7      50.269
2014    9       29    18   1    4.86   529.9    3.7      50.260
2014    9       29    18   6    4.86   529.8    3.7      50.252
2014    9       29    18  11    4.86   529.7    3.7      50.243
2014    9       29    18  17    4.86   529.6    3.7      50.234
2014    9       29    18  22    4.86   529.4    3.7      50.225
2014    9       29    18  28    4.86   529.3    3.7      50.217
2014    9       29    18  33    4.86   529.2    3.7      50.208
2014    9       29    18  38    4.86   529.1    3.7      50.198
2014    9       29    18  44    4.86   528.9    3.7      50.189
2014    9       29    18  49    4.86   528.8    3.7      50.179
2014    9       29    18  54    4.86   528.7    3.7      50.169
2014    9       29    19   0    4.86   528.6    3.7      50.159
2014    9       29    19   5    4.85   528.4    3.7      50.149
2014    9       29    19  11    4.85   528.3    3.7      50.138
2014    9       29    19  16    4.85   528.2    3.8      50.127
2014    9       29    19  21    4.85   528.1    3.8      50.116
2014    9       29    19  27    4.85   527.9    3.8      50.105
2014    9       29    19  32    4.85   527.8    3.8      50.093
2014    9       29    19  37    4.85   527.7    3.8      50.081
2014    9       29    19  43    4.85   527.6    3.8      50.069
2014    9       29    19  48    4.85   527.4    3.8      50.057
2014    9       29    19  54    4.85   527.3    3.8      50.045
2014    9       29    19  59    4.85   527.2    3.8      50.032
2014    9       29    20   4    4.85   527.1    3.8      50.019
2014    9       29    20  10    4.85   526.9    3.8      50.006
2014    9       29    20  15    4.84   526.8    3.8      49.993
2014    9       29    20  20    4.84   526.7    3.8      49.979
2014    9       29    20  26    4.84   526.6    3.8      49.966
2014    9       29    20  31    4.84   526.5    3.8      49.952
2014    9       29    20  37    4.84   526.3    3.8      49.938
2014    9       29    20  42    4.84   526.2    3.8      49.924
2014    9       29    20  47    4.84   526.1    3.8      49.910
2014    9       29    20  53    4.84   526.0    3.8      49.895
2014    9       29    20  58    4.84   525.8    3.8      49.880
2014    9       29    21   4    4.84   525.7    3.8      49.866
2014    9       29    21   9    4.84   525.6    3.8      49.851
2014    9       29    21  14    4.84   525.5    3.8      49.836
2014    9       29    21  20    4.83   525.3    3.8      49.821
2014    9       29    21  25    4.83   525.2    3.8      49.806
2014    9       29    21  30    4.83   525.1    3.8      49.790
2014    9       29    21  36    4.83   525.0    3.8      49.774
2014    9       29    21  41    4.83   524.8    3.8      49.759
2014    9       29    21  47    4.83   524.7    3.8      49.743
2014    9       29    21  52    4.83   524.6    3.8      49.727
2014    9       29    21  57    4.83   524.5    3.8      49.710
2014    9       29    22   3    4.83   524.3    3.8      49.694
2014    9       29    22   8    4.83   524.2    3.8      49.678
2014    9       29    22  13    4.83   524.1    3.8      49.661
2014    9       29    22  19    4.83   523.9    3.8      49.645
2014    9       29    22  24    4.82   523.8    3.8      49.628
2014    9       29    22  30    4.82   523.7    3.8      49.611
2014    9       29    22  35    4.82   523.5    3.8      49.595
2014    9       29    22  40    4.82   523.4    3.8      49.578
2014    9       29    22  46    4.82   523.3    3.8      49.561
2014    9       29    22  51    4.82   523.1    3.8      49.545
2014    9       29    22  56    4.82   523.0    3.8      49.529
2014    9       29    23   2    4.82   522.9    3.8      49.512
2014    9       29    23   7    4.82   522.7    3.8      49.496
2014    9       29    23  13    4.82   522.6    3.8      49.480
2014    9       29    23  18    4.82   522.5    3.8      49.465
2014    9       29    23  23    4.81   522.3    3.8      49.449
2014    9       29    23  29    4.81   522.2    3.8      49.434
2014    9       29    23  34    4.81   522.1    3.8      49.419
2014    9       29    23  39    4.81   521.9    3.8      49.404
2014    9       29    23  45    4.81   521.8    3.8      49.390
2014    9       29    23  50    4.81   521.7    3.8      49.376
2014    9       29    23  56    4.81   521.5    3.8      49.362
2014    9       30     0   1    4.81   521.4    3.8      49.349
2014    9       30     0   6    4.81   521.3    3.8      49.335
2014    9       30     0  12    4.81   521.1    3.8      49.322
2014    9       30     0  17    4.81   521.0    3.8      49.309
2014    9       30     0  22    4.81   520.9    3.8      49.297
2014    9       30     0  28    4.81   520.7    3.8      49.284
2014    9       30     0  33    4.81   520.6    3.8      49.271
2014    9       30     0  39    4.80   520.5    3.8      49.258
2014    9       30     0  44    4.80   520.3    3.8      49.245
2014    9       30     0  49    4.80   520.2    3.8      49.233
2014    9       30     0  55    4.80   520.1    3.8      49.219
2014    9       30     1   0    4.80   519.9    3.8      49.206
2014    9       30     1   5    4.80   519.8    3.8      49.193
2014    9       30     1  11    4.80   519.7    3.8      49.179
2014    9       30     1  16    4.80   519.5    3.8      49.166
2014    9       30     1  22    4.80   519.4    3.8      49.152
2014    9       30     1  27    4.80   519.3    3.8      49.138
2014    9       30     1  32    4.80   519.1    3.8      49.124
2014    9       30     1  38    4.80   519.0    3.8      49.109
2014    9       30     1  43    4.80   518.8    3.8      49.095
2014    9       30     1  49    4.79   518.7    3.8      49.081
2014    9       30     1  54    4.79   518.6    3.8      49.067
2014    9       30     1  59    4.79   518.4    3.8      49.052
2014    9       30     2   5    4.79   518.3    3.8      49.038
2014    9       30     2  10    4.79   518.1    3.8      49.024
2014    9       30     2  15    4.79   518.0    3.8      49.010
2014    9       30     2  21    4.79   517.9    3.8      48.996
2014    9       30     2  26    4.79   517.7    3.8      48.982
2014    9       30     2  32    4.79   517.6    3.8      48.968
2014    9       30     2  37    4.79   517.5    3.8      48.955
2014    9       30     2  42    4.79   517.3    3.8      48.941
2014    9       30     2  48    4.79   517.2    3.8      48.928
2014    9       30     2  53    4.79   517.1    3.8      48.915
2014    9       30     2  58    4.79   516.9    3.8      48.902
2014    9       30     3   4    4.78   516.8    3.8      48.890
2014    9       30     3   9    4.78   516.7    3.8      48.877
2014    9       30     3  15    4.78   516.5    3.8      48.865
2014    9       30     3  20    4.78   516.4    3.8      48.852
2014    9       30     3  25    4.78   516.3    3.8      48.840
2014    9       30     3  31    4.78   516.1    3.8      48.828
2014    9       30     3  36    4.78   516.0    3.8      48.816
2014    9       30     3  41    4.78   515.9    3.8      48.804
2014    9       30     3  47    4.78   515.7    3.8      48.792
2014    9       30     3  52    4.78   515.6    3.8      48.781
2014    9       30     3  58    4.78   515.5    3.8      48.769
2014    9       30     4   3    4.78   515.4    3.8      48.757
2014    9       30     4   8    4.78   515.2    3.8      48.744
2014    9       30     4  14    4.78   515.1    3.8      48.732
2014    9       30     4  19    4.77   515.0    3.8      48.720
2014    9       30     4  25    4.77   514.9    3.8      48.707
2014    9       30     4  30    4.77   514.7    3.8      48.694
2014    9       30     4  35    4.77   514.6    3.8      48.681
2014    9       30     4  41    4.77   514.5    3.9      48.667
2014    9       30     4  46    4.77   514.4    3.9      48.653
2014    9       30     4  51    4.77   514.2    3.9      48.639
2014    9       30     4  57    4.77   514.1    3.9      48.625
2014    9       30     5   2    4.77   514.0    3.9      48.611
2014    9       30     5   8    4.77   513.8    3.9      48.596
2014    9       30     5  13    4.77   513.7    3.9      48.581
2014    9       30     5  18    4.77   513.6    3.9      48.565
2014    9       30     5  24    4.76   513.5    3.9      48.550
2014    9       30     5  29    4.76   513.3    3.9      48.534
2014    9       30     5  34    4.76   513.2    3.9      48.518
2014    9       30     5  40    4.76   513.1    3.9      48.502
2014    9       30     5  45    4.76   512.9    3.9      48.485
2014    9       30     5  51    4.76   512.8    3.9      48.469
2014    9       30     5  56    4.76   512.7    3.9      48.452
2014    9       30     6   1    4.76   512.6    3.9      48.435
2014    9       30     6   7    4.76   512.4    3.9      48.418
2014    9       30     6  12    4.76   512.3    3.9      48.401
2014    9       30     6  17    4.76   512.2    3.9      48.384
2014    9       30     6  23    4.76   512.0    3.9      48.366
2014    9       30     6  28    4.75   511.9    3.9      48.349
2014    9       30     6  34    4.75   511.8    3.9      48.331
2014    9       30     6  39    4.75   511.6    3.9      48.313
2014    9       30     6  44    4.75   511.5    3.9      48.295
2014    9       30     6  50    4.75   511.4    3.9      48.277
2014    9       30     6  55    4.75   511.2    3.9      48.259
2014    9       30     7   0    4.75   511.1    3.9      48.241
2014    9       30     7   6    4.75   511.0    3.9      48.223
2014    9       30     7  11    4.75   510.8    3.9      48.204
2014    9       30     7  17    4.75   510.7    3.9      48.186
2014    9       30     7  22    4.75   510.6    3.9      48.167
2014    9       30     7  27    4.75   510.4    3.9      48.148
2014    9       30     7  33    4.75   510.3    3.9      48.130
2014    9       30     7  38    4.74   510.2    3.9      48.111
2014    9       30     7  43    4.74   510.0    3.9      48.091
2014    9       30     7  49    4.74   509.9    3.9      48.072
2014    9       30     7  54    4.74   509.8    3.9      48.053
2014    9       30     8   0    4.74   509.6    3.9      48.033
2014    9       30     8   5    4.74   509.5    3.9      48.014
2014    9       30     8  10    4.74   509.3    3.9      47.994
2014    9       30     8  16    4.74   509.2    3.9      47.974
2014    9       30     8  21    4.74   509.1    3.9      47.955
2014    9       30     8  26    4.74   508.9    3.9      47.935
2014    9       30     8  32    4.74   508.8    3.9      47.915
2014    9       30     8  37    4.74   508.6    3.9      47.895
2014    9       30     8  43    4.73   508.5    3.9      47.876
2014    9       30     8  48    4.73   508.3    3.9      47.856
2014    9       30     8  53    4.73   508.2    3.9      47.837
2014    9       30     8  59    4.73   508.1    3.9      47.817
2014    9       30     9   4    4.73   507.9    3.9      47.798
2014    9       30     9  10    4.73   507.8    3.9      47.778
2014    9       30     9  15    4.73   507.6    3.9      47.759
2014    9       30     9  20    4.73   507.5    3.9      47.741
2014    9       30     9  26    4.73   507.3    3.9      47.722
2014    9       30     9  31    4.73   507.2    3.9      47.704
2014    9       30     9  36    4.73   507.0    3.9      47.686
2014    9       30     9  42    4.73   506.9    3.9      47.668
2014    9       30     9  47    4.73   506.8    3.9      47.650
2014    9       30     9  53    4.73   506.6    3.9      47.633
2014    9       30     9  58    4.72   506.5    3.9      47.616
2014    9       30    10   3    4.72   506.3    3.9      47.600
2014    9       30    10   9    4.72   506.2    3.9      47.583
2014    9       30    10  14    4.72   506.0    3.9      47.567
2014    9       30    10  19    4.72   505.9    3.9      47.551
2014    9       30    10  25    4.72   505.8    3.9      47.536
2014    9       30    10  30    4.72   505.6    3.9      47.520
2014    9       30    10  36    4.72   505.5    3.9      47.505
2014    9       30    10  41    4.72   505.3    3.9      47.490
2014    9       30    10  46    4.72   505.2    3.9      47.476
2014    9       30    10  52    4.72   505.0    3.9      47.461
2014    9       30    10  57    4.72   504.9    3.9      47.446
2014    9       30    11   2    4.72   504.8    3.9      47.432
2014    9       30    11   8    4.72   504.6    3.9      47.417
2014    9       30    11  13    4.72   504.5    3.9      47.403
2014    9       30    11  19    4.71   504.3    3.9      47.389
2014    9       30    11  24    4.71   504.2    3.9      47.374
2014    9       30    11  29    4.71   504.1    3.9      47.360
2014    9       30    11  35    4.71   503.9    3.9      47.346
2014    9       30    11  40    4.71   503.8    3.9      47.332
2014    9       30    11  46    4.71   503.6    3.9      47.318
2014    9       30    11  51    4.71   503.5    3.9      47.303
2014    9       30    11  56    4.71   503.4    3.9      47.289
2014    9       30    12   2    4.71   503.2    3.9      47.275
2014    9       30    12   7    4.71   503.1    3.9      47.261
2014    9       30    12  12    4.71   502.9    3.9      47.247
2014    9       30    12  18    4.71   502.8    3.9      47.233
2014    9       30    12  23    4.71   502.7    3.9      47.219
2014    9       30    12  29    4.71   502.5    3.9      47.205
2014    9       30    12  34    4.71   502.4    4.0      47.190
2014    9       30    12  39    4.70   502.2    4.0      47.176
2014    9       30    12  45    4.70   502.1    4.0      47.162
2014    9       30    12  50    4.70   502.0    4.0      47.147
2014    9       30    12  55    4.70   501.8    4.0      47.133
2014    9       30    13   1    4.70   501.7    4.0      47.118
2014    9       30    13   6    4.70   501.5    4.0      47.104
2014    9       30    13  12    4.70   501.4    4.0      47.089
2014    9       30    13  17    4.70   501.3    4.0      47.074
2014    9       30    13  22    4.70   501.1    4.0      47.059
2014    9       30    13  28    4.70   501.0    4.0      47.043
2014    9       30    13  33    4.70   500.8    4.0      47.028
2014    9       30    13  38    4.70   500.7    4.0      47.012
2014    9       30    13  44    4.70   500.6    4.0      46.996
2014    9       30    13  49    4.70   500.4    4.0      46.979
2014    9       30    13  55    4.70   500.3    4.0      46.962
2014    9       30    14   0    4.69   500.1    4.0      46.945
2014    9       30    14   5    4.69   500.0    4.0      46.928
2014    9       30    14  11    4.69   499.9    4.0      46.910
2014    9       30    14  16    4.69   499.7    4.0      46.892
2014    9       30    14  21    4.69   499.6    4.0      46.873
2014    9       30    14  27    4.69   499.4    4.0      46.855
2014    9       30    14  32    4.69   499.3    4.0      46.836
2014    9       30    14  38    4.69   499.2    4.0      46.816
2014    9       30    14  43    4.69   499.0    4.0      46.797
2014    9       30    14  48    4.69   498.9    4.0      46.777
2014    9       30    14  54    4.69   498.7    4.0      46.757
2014    9       30    14  59    4.69   498.6    4.0      46.736
2014    9       30    15   4    4.69   498.5    4.0      46.716
2014    9       30    15  10    4.69   498.3    4.0      46.695
2014    9       30    15  15    4.68   498.2    4.0      46.674
2014    9       30    15  21    4.68   498.0    4.0      46.652
2014    9       30    15  26    4.68   497.9    4.0      46.631
2014    9       30    15  31    4.68   497.7    4.0      46.609
2014    9       30    15  37    4.68   497.6    4.0      46.587
2014    9       30    15  42    4.68   497.5    4.0      46.566
2014    9       30    15  48    4.68   497.3    4.0      46.544
2014    9       30    15  53    4.68   497.2    4.0      46.522
2014    9       30    15  58    4.68   497.0    4.0      46.499
2014    9       30    16   4    4.68   496.9    4.0      46.477
2014    9       30    16   9    4.68   496.8    4.0      46.455
2014    9       30    16  14    4.68   496.6    4.0      46.433
2014    9       30    16  20    4.68   496.5    4.0      46.411
2014    9       30    16  25    4.68   496.3    4.0      46.388
2014    9       30    16  31    4.67   496.2    4.0      46.366
2014    9       30    16  36    4.67   496.0    4.0      46.344
2014    9       30    16  41    4.67   495.9    4.0      46.322
2014    9       30    16  47    4.67   495.8    4.0      46.300
2014    9       30    16  52    4.67   495.6    4.0      46.277
2014    9       30    16  57    4.67   495.5    4.0      46.255
2014    9       30    17   3    4.67   495.3    4.0      46.233
2014    9       30    17   8    4.67   495.2    4.0      46.211
2014    9       30    17  14    4.67   495.0    4.0      46.189
2014    9       30    17  19    4.67   494.9    4.0      46.167
2014    9       30    17  24    4.67   494.7    4.0      46.145
2014    9       30    17  30    4.67   494.6    4.0      46.123
2014    9       30    17  35    4.67   494.4    4.0      46.101
2014    9       30    17  40    4.67   494.3    4.0      46.079
2014    9       30    17  46    4.67   494.1    4.0      46.057
2014    9       30    17  51    4.66   494.0    4.0      46.035
2014    9       30    17  57    4.66   493.8    4.0      46.014
2014    9       30    18   2    4.66   493.7    4.0      45.992
2014    9       30    18   7    4.66   493.5    4.0      45.970
2014    9       30    18  13    4.66   493.4    4.0      45.949
2014    9       30    18  18    4.66   493.2    4.0      45.928
2014    9       30    18  23    4.66   493.1    4.0      45.907
2014    9       30    18  29    4.66   492.9    4.0      45.886
2014    9       30    18  34    4.66   492.8    4.0      45.865
2014    9       30    18  40    4.66   492.6    4.0      45.845
2014    9       30    18  45    4.66   492.5    4.0      45.825
2014    9       30    18  50    4.66   492.3    4.0      45.804
2014    9       30    18  56    4.66   492.2    4.0      45.785
2014    9       30    19   1    4.66   492.0    4.1      45.765
2014    9       30    19   7    4.66   491.8    4.1      45.746
2014    9       30    19  12    4.66   491.7    4.1      45.727
2014    9       30    19  17    4.66   491.5    4.1      45.708
2014    9       30    19  23    4.65   491.4    4.1      45.689
2014    9       30    19  28    4.65   491.2    4.1      45.671
2014    9       30    19  33    4.65   491.1    4.1      45.653
2014    9       30    19  39    4.65   490.9    4.1      45.636
2014    9       30    19  44    4.65   490.8    4.1      45.618
2014    9       30    19  50    4.65   490.6    4.1      45.601
2014    9       30    19  55    4.65   490.4    4.1      45.584
2014    9       30    20   0    4.65   490.3    4.1      45.567
2014    9       30    20   6    4.65   490.1    4.1      45.550
2014    9       30    20  11    4.65   490.0    4.1      45.534
2014    9       30    20  16    4.65   489.8    4.1      45.517
2014    9       30    20  22    4.65   489.7    4.1      45.501
2014    9       30    20  27    4.65   489.5    4.1      45.484
2014    9       30    20  33    4.65   489.4    4.1      45.468
2014    9       30    20  38    4.65   489.2    4.1      45.452
2014    9       30    20  43    4.65   489.1    4.1      45.435
2014    9       30    20  49    4.65   488.9    4.1      45.419
2014    9       30    20  54    4.65   488.8    4.1      45.402
2014    9       30    20  59    4.65   488.6    4.1      45.385
2014    9       30    21   5    4.65   488.5    4.1      45.368
2014    9       30    21  10    4.65   488.3    4.1      45.351
2014    9       30    21  16    4.65   488.2    4.1      45.334
2014    9       30    21  21    4.64   488.0    4.1      45.316
2014    9       30    21  26    4.64   487.9    4.1      45.298
2014    9       30    21  32    4.64   487.7    4.1      45.280
2014    9       30    21  37    4.64   487.6    4.1      45.261
2014    9       30    21  42    4.64   487.4    4.1      45.243
2014    9       30    21  48    4.64   487.3    4.1      45.224
2014    9       30    21  53    4.64   487.1    4.1      45.205
2014    9       30    21  59    4.64   487.0    4.1      45.186
2014    9       30    22   4    4.64   486.8    4.1      45.166
2014    9       30    22   9    4.64   486.7    4.1      45.146
2014    9       30    22  15    4.64   486.5    4.1      45.126
2014    9       30    22  20    4.64   486.4    4.1      45.106
2014    9       30    22  25    4.64   486.2    4.1      45.086
2014    9       30    22  31    4.64   486.1    4.1      45.065
2014    9       30    22  36    4.64   485.9    4.1      45.044
2014    9       30    22  42    4.64   485.8    4.1      45.023
2014    9       30    22  47    4.64   485.6    4.1      45.001
2014    9       30    22  52    4.64   485.5    4.1      44.980
2014    9       30    22  58    4.64   485.3    4.2      44.958
2014    9       30    23   3    4.64   485.2    4.2      44.936
2014    9       30    23   9    4.63   485.0    4.2      44.914
2014    9       30    23  14    4.63   484.9    4.2      44.892
2014    9       30    23  19    4.63   484.7    4.2      44.869
2014    9       30    23  25    4.63   484.6    4.2      44.846
2014    9       30    23  30    4.63   484.4    4.2      44.823
2014    9       30    23  35    4.63   484.3    4.2      44.800
2014    9       30    23  41    4.63   484.1    4.2      44.777
2014    9       30    23  46    4.63   484.0    4.2      44.754
2014    9       30    23  52    4.63   483.8    4.2      44.730
2014    9       30    23  57    4.63   483.7    4.2      44.706
2014   10        1     0   2    4.63   483.5    4.2      44.682
