year    month   day   hour  minute  B_enl V_enl   n_enl       T_enl
[year] [month] [day] [hour][minute] [nT]  [km/s]  [cm-3]      [kK]
2014    9        2     0   1    4.49   537.0    3.8      51.128
2014    9        2     0   7    4.49   536.8    3.8      51.106
2014    9        2     0  13    4.49   536.7    3.8      51.084
2014    9        2     0  18    4.49   536.6    3.8      51.061
2014    9        2     0  24    4.48   536.5    3.8      51.038
2014    9        2     0  30    4.48   536.3    3.8      51.014
2014    9        2     0  35    4.48   536.2    3.8      50.991
2014    9        2     0  41    4.48   536.1    3.8      50.967
2014    9        2     0  46    4.48   535.9    3.8      50.943
2014    9        2     0  52    4.48   535.8    3.8      50.919
2014    9        2     0  58    4.47   535.7    3.8      50.894
2014    9        2     1   3    4.47   535.5    3.8      50.870
2014    9        2     1   9    4.47   535.4    3.8      50.846
2014    9        2     1  14    4.47   535.3    3.8      50.822
2014    9        2     1  20    4.47   535.1    3.8      50.797
2014    9        2     1  26    4.47   535.0    3.8      50.773
2014    9        2     1  31    4.46   534.9    3.8      50.749
2014    9        2     1  37    4.46   534.7    3.8      50.725
2014    9        2     1  43    4.46   534.6    3.8      50.702
2014    9        2     1  48    4.46   534.5    3.8      50.678
2014    9        2     1  54    4.46   534.3    3.8      50.655
2014    9        2     1  59    4.46   534.2    3.8      50.632
2014    9        2     2   5    4.46   534.1    3.8      50.609
2014    9        2     2  11    4.45   533.9    3.8      50.586
2014    9        2     2  16    4.45   533.8    3.8      50.564
2014    9        2     2  22    4.45   533.7    3.8      50.541
2014    9        2     2  28    4.45   533.5    3.8      50.519
2014    9        2     2  33    4.45   533.4    3.8      50.496
2014    9        2     2  39    4.45   533.2    3.8      50.474
2014    9        2     2  44    4.44   533.1    3.8      50.453
2014    9        2     2  50    4.44   533.0    3.8      50.431
2014    9        2     2  56    4.44   532.8    3.8      50.409
2014    9        2     3   1    4.44   532.7    3.8      50.387
2014    9        2     3   7    4.44   532.5    3.8      50.366
2014    9        2     3  12    4.44   532.4    3.8      50.344
2014    9        2     3  18    4.43   532.3    3.8      50.322
2014    9        2     3  24    4.43   532.1    3.8      50.299
2014    9        2     3  29    4.43   532.0    3.8      50.277
2014    9        2     3  35    4.43   531.8    3.8      50.254
2014    9        2     3  41    4.43   531.7    3.8      50.232
2014    9        2     3  46    4.43   531.5    3.8      50.209
2014    9        2     3  52    4.43   531.4    3.8      50.187
2014    9        2     3  57    4.42   531.3    3.8      50.164
2014    9        2     4   3    4.42   531.1    3.8      50.141
2014    9        2     4   9    4.42   531.0    3.8      50.119
2014    9        2     4  14    4.42   530.8    3.8      50.097
2014    9        2     4  20    4.42   530.7    3.8      50.075
2014    9        2     4  26    4.42   530.5    3.8      50.053
2014    9        2     4  31    4.42   530.4    3.8      50.031
2014    9        2     4  37    4.41   530.3    3.8      50.010
2014    9        2     4  42    4.41   530.1    3.8      49.988
2014    9        2     4  48    4.41   530.0    3.8      49.967
2014    9        2     4  54    4.41   529.8    3.8      49.946
2014    9        2     4  59    4.41   529.7    3.8      49.925
2014    9        2     5   5    4.41   529.6    3.8      49.904
2014    9        2     5  10    4.40   529.4    3.8      49.883
2014    9        2     5  16    4.40   529.3    3.8      49.862
2014    9        2     5  22    4.40   529.1    3.8      49.842
2014    9        2     5  27    4.40   529.0    3.8      49.821
2014    9        2     5  33    4.40   528.8    3.8      49.799
2014    9        2     5  39    4.40   528.7    3.8      49.778
2014    9        2     5  44    4.40   528.6    3.8      49.757
2014    9        2     5  50    4.39   528.4    3.8      49.735
2014    9        2     5  55    4.39   528.3    3.8      49.714
2014    9        2     6   1    4.39   528.1    3.8      49.692
2014    9        2     6   7    4.39   528.0    3.8      49.671
2014    9        2     6  12    4.39   527.9    3.8      49.649
2014    9        2     6  18    4.39   527.7    3.8      49.627
2014    9        2     6  24    4.39   527.6    3.8      49.605
2014    9        2     6  29    4.38   527.4    3.8      49.583
2014    9        2     6  35    4.38   527.3    3.8      49.561
2014    9        2     6  40    4.38   527.1    3.8      49.538
2014    9        2     6  46    4.38   527.0    3.8      49.516
2014    9        2     6  52    4.38   526.9    3.8      49.493
2014    9        2     6  57    4.38   526.7    3.8      49.470
2014    9        2     7   3    4.38   526.6    3.8      49.447
2014    9        2     7   8    4.37   526.4    3.8      49.424
2014    9        2     7  14    4.37   526.3    3.8      49.401
2014    9        2     7  20    4.37   526.1    3.8      49.377
2014    9        2     7  25    4.37   526.0    3.8      49.353
2014    9        2     7  31    4.37   525.9    3.8      49.329
2014    9        2     7  37    4.37   525.7    3.8      49.304
2014    9        2     7  42    4.37   525.6    3.8      49.279
2014    9        2     7  48    4.36   525.4    3.8      49.254
2014    9        2     7  53    4.36   525.3    3.8      49.229
2014    9        2     7  59    4.36   525.1    3.8      49.203
2014    9        2     8   5    4.36   525.0    3.8      49.178
2014    9        2     8  10    4.36   524.8    3.8      49.153
2014    9        2     8  16    4.36   524.7    3.8      49.127
2014    9        2     8  22    4.35   524.5    3.8      49.101
2014    9        2     8  27    4.35   524.4    3.8      49.076
2014    9        2     8  33    4.35   524.2    3.8      49.050
2014    9        2     8  38    4.35   524.1    3.8      49.025
2014    9        2     8  44    4.35   523.9    3.8      49.000
2014    9        2     8  50    4.35   523.8    3.8      48.975
2014    9        2     8  55    4.35   523.7    3.8      48.950
2014    9        2     9   1    4.34   523.5    3.8      48.925
2014    9        2     9   6    4.34   523.4    3.8      48.900
2014    9        2     9  12    4.34   523.2    3.8      48.875
2014    9        2     9  18    4.34   523.1    3.8      48.849
2014    9        2     9  23    4.34   522.9    3.8      48.824
2014    9        2     9  29    4.34   522.8    3.8      48.798
2014    9        2     9  35    4.33   522.6    3.8      48.773
2014    9        2     9  40    4.33   522.5    3.8      48.746
2014    9        2     9  46    4.33   522.3    3.8      48.720
2014    9        2     9  51    4.33   522.2    3.8      48.694
2014    9        2     9  57    4.33   522.0    3.8      48.668
2014    9        2    10   3    4.33   521.9    3.8      48.641
2014    9        2    10   8    4.32   521.7    3.8      48.615
2014    9        2    10  14    4.32   521.5    3.8      48.588
2014    9        2    10  20    4.32   521.4    3.8      48.561
2014    9        2    10  25    4.32   521.2    3.8      48.534
2014    9        2    10  31    4.32   521.1    3.8      48.506
2014    9        2    10  36    4.32   520.9    3.8      48.478
2014    9        2    10  42    4.32   520.8    3.8      48.450
2014    9        2    10  48    4.31   520.6    3.8      48.421
2014    9        2    10  53    4.31   520.5    3.8      48.392
2014    9        2    10  59    4.31   520.3    3.8      48.363
2014    9        2    11   4    4.31   520.1    3.8      48.334
2014    9        2    11  10    4.31   520.0    3.8      48.304
2014    9        2    11  16    4.31   519.8    3.8      48.275
2014    9        2    11  21    4.30   519.7    3.8      48.245
2014    9        2    11  27    4.30   519.5    3.8      48.215
2014    9        2    11  33    4.30   519.3    3.8      48.185
2014    9        2    11  38    4.30   519.2    3.8      48.155
2014    9        2    11  44    4.30   519.0    3.8      48.125
2014    9        2    11  49    4.30   518.9    3.8      48.095
2014    9        2    11  55    4.30   518.7    3.8      48.066
2014    9        2    12   1    4.29   518.5    3.8      48.036
2014    9        2    12   6    4.29   518.4    3.8      48.007
2014    9        2    12  12    4.29   518.2    3.8      47.977
2014    9        2    12  18    4.29   518.0    3.8      47.949
2014    9        2    12  23    4.29   517.9    3.8      47.920
2014    9        2    12  29    4.29   517.7    3.8      47.892
2014    9        2    12  34    4.29   517.6    3.8      47.864
2014    9        2    12  40    4.28   517.4    3.8      47.837
2014    9        2    12  46    4.28   517.2    3.8      47.810
2014    9        2    12  51    4.28   517.1    3.8      47.783
2014    9        2    12  57    4.28   516.9    3.8      47.757
2014    9        2    13   2    4.28   516.7    3.8      47.732
2014    9        2    13   8    4.28   516.6    3.8      47.707
2014    9        2    13  14    4.28   516.4    3.8      47.682
2014    9        2    13  19    4.27   516.3    3.8      47.658
2014    9        2    13  25    4.27   516.1    3.8      47.634
2014    9        2    13  31    4.27   515.9    3.8      47.611
2014    9        2    13  36    4.27   515.8    3.8      47.588
2014    9        2    13  42    4.27   515.6    3.8      47.566
2014    9        2    13  47    4.27   515.4    3.8      47.545
2014    9        2    13  53    4.27   515.3    3.8      47.524
2014    9        2    13  59    4.26   515.1    3.8      47.503
2014    9        2    14   4    4.26   515.0    3.8      47.483
2014    9        2    14  10    4.26   514.8    3.8      47.463
2014    9        2    14  16    4.26   514.6    3.8      47.442
2014    9        2    14  21    4.26   514.5    3.8      47.421
2014    9        2    14  27    4.26   514.3    3.8      47.399
2014    9        2    14  32    4.26   514.1    3.8      47.377
2014    9        2    14  38    4.26   514.0    3.8      47.355
2014    9        2    14  44    4.25   513.8    3.8      47.332
2014    9        2    14  49    4.25   513.6    3.8      47.309
2014    9        2    14  55    4.25   513.5    3.8      47.286
2014    9        2    15   0    4.25   513.3    3.8      47.263
2014    9        2    15   6    4.25   513.1    3.8      47.239
2014    9        2    15  12    4.25   513.0    3.8      47.215
2014    9        2    15  17    4.25   512.8    3.8      47.191
2014    9        2    15  23    4.24   512.7    3.8      47.167
2014    9        2    15  29    4.24   512.5    3.8      47.144
2014    9        2    15  34    4.24   512.3    3.8      47.120
2014    9        2    15  40    4.24   512.2    3.8      47.096
2014    9        2    15  45    4.24   512.0    3.8      47.072
2014    9        2    15  51    4.24   511.8    3.8      47.048
2014    9        2    15  57    4.24   511.7    3.8      47.024
2014    9        2    16   2    4.23   511.5    3.8      47.000
2014    9        2    16   8    4.23   511.4    3.8      46.977
2014    9        2    16  14    4.23   511.2    3.8      46.953
2014    9        2    16  19    4.23   511.0    3.8      46.930
2014    9        2    16  25    4.23   510.9    3.8      46.906
2014    9        2    16  30    4.23   510.7    3.8      46.882
2014    9        2    16  36    4.23   510.5    3.8      46.858
2014    9        2    16  42    4.22   510.4    3.8      46.834
2014    9        2    16  47    4.22   510.2    3.8      46.811
2014    9        2    16  53    4.22   510.1    3.8      46.788
2014    9        2    16  58    4.22   509.9    3.8      46.765
2014    9        2    17   4    4.22   509.7    3.8      46.743
2014    9        2    17  10    4.22   509.6    3.8      46.720
2014    9        2    17  15    4.22   509.4    3.8      46.698
2014    9        2    17  21    4.22   509.3    3.8      46.675
2014    9        2    17  27    4.21   509.1    3.8      46.651
2014    9        2    17  32    4.21   508.9    3.8      46.628
2014    9        2    17  38    4.21   508.8    3.8      46.603
2014    9        2    17  43    4.21   508.6    3.8      46.579
2014    9        2    17  49    4.21   508.5    3.8      46.554
2014    9        2    17  55    4.21   508.3    3.8      46.528
2014    9        2    18   0    4.21   508.1    3.8      46.502
2014    9        2    18   6    4.20   508.0    3.8      46.476
2014    9        2    18  12    4.20   507.8    3.8      46.449
2014    9        2    18  17    4.20   507.7    3.8      46.422
2014    9        2    18  23    4.20   507.5    3.8      46.394
2014    9        2    18  28    4.20   507.3    3.8      46.366
2014    9        2    18  34    4.20   507.2    3.8      46.338
2014    9        2    18  40    4.20   507.0    3.8      46.309
2014    9        2    18  45    4.19   506.9    3.8      46.280
2014    9        2    18  51    4.19   506.7    3.8      46.251
2014    9        2    18  56    4.19   506.5    3.8      46.221
2014    9        2    19   2    4.19   506.4    3.8      46.191
2014    9        2    19   8    4.19   506.2    3.8      46.161
2014    9        2    19  13    4.19   506.0    3.8      46.131
2014    9        2    19  19    4.19   505.9    3.8      46.100
2014    9        2    19  25    4.18   505.7    3.8      46.070
2014    9        2    19  30    4.18   505.5    3.8      46.039
2014    9        2    19  36    4.18   505.4    3.8      46.008
2014    9        2    19  41    4.18   505.2    3.8      45.978
2014    9        2    19  47    4.18   505.1    3.8      45.947
2014    9        2    19  53    4.18   504.9    3.8      45.916
2014    9        2    19  58    4.18   504.7    3.8      45.885
2014    9        2    20   4    4.18   504.6    3.8      45.855
2014    9        2    20  10    4.17   504.4    3.8      45.825
2014    9        2    20  15    4.17   504.2    3.8      45.794
2014    9        2    20  21    4.17   504.1    3.8      45.764
2014    9        2    20  26    4.17   503.9    3.8      45.734
2014    9        2    20  32    4.17   503.7    3.8      45.705
2014    9        2    20  38    4.17   503.6    3.8      45.675
2014    9        2    20  43    4.17   503.4    3.8      45.646
2014    9        2    20  49    4.16   503.2    3.8      45.618
2014    9        2    20  54    4.16   503.1    3.8      45.590
2014    9        2    21   0    4.16   502.9    3.8      45.562
2014    9        2    21   6    4.16   502.7    3.8      45.535
2014    9        2    21  11    4.16   502.6    3.8      45.508
2014    9        2    21  17    4.16   502.4    3.8      45.481
2014    9        2    21  23    4.16   502.2    3.8      45.454
2014    9        2    21  28    4.15   502.0    3.8      45.426
2014    9        2    21  34    4.15   501.9    3.8      45.399
2014    9        2    21  39    4.15   501.7    3.8      45.371
2014    9        2    21  45    4.15   501.5    3.8      45.343
2014    9        2    21  51    4.15   501.4    3.8      45.316
2014    9        2    21  56    4.15   501.2    3.8      45.288
2014    9        2    22   2    4.15   501.0    3.8      45.259
2014    9        2    22   8    4.15   500.8    3.8      45.231
2014    9        2    22  13    4.14   500.7    3.8      45.202
2014    9        2    22  19    4.14   500.5    3.8      45.174
2014    9        2    22  24    4.14   500.3    3.8      45.145
2014    9        2    22  30    4.14   500.1    3.8      45.117
2014    9        2    22  36    4.14   500.0    3.8      45.088
2014    9        2    22  41    4.14   499.8    3.8      45.060
2014    9        2    22  47    4.14   499.6    3.8      45.031
2014    9        2    22  52    4.13   499.4    3.8      45.003
2014    9        2    22  58    4.13   499.2    3.8      44.975
2014    9        2    23   4    4.13   499.1    3.8      44.948
2014    9        2    23   9    4.13   498.9    3.8      44.920
2014    9        2    23  15    4.13   498.7    3.8      44.893
2014    9        2    23  21    4.13   498.5    3.8      44.867
2014    9        2    23  26    4.13   498.3    3.8      44.840
2014    9        2    23  32    4.13   498.1    3.8      44.815
2014    9        2    23  37    4.12   498.0    3.8      44.789
2014    9        2    23  43    4.12   497.8    3.8      44.765
2014    9        2    23  49    4.12   497.6    3.8      44.740
2014    9        2    23  54    4.12   497.4    3.8      44.716
2014    9        3     0   0    4.12   497.2    3.8      44.694
2014    9        3     0   6    4.12   497.0    3.9      44.672
2014    9        3     0  11    4.12   496.9    3.9      44.651
2014    9        3     0  17    4.12   496.7    3.9      44.630
2014    9        3     0  22    4.12   496.5    3.9      44.611
2014    9        3     0  28    4.11   496.3    3.9      44.592
2014    9        3     0  34    4.11   496.1    3.9      44.574
2014    9        3     0  39    4.11   496.0    3.9      44.556
2014    9        3     0  45    4.11   495.8    3.9      44.537
2014    9        3     0  50    4.11   495.6    3.9      44.519
2014    9        3     0  56    4.11   495.4    3.9      44.501
2014    9        3     1   2    4.11   495.2    3.9      44.483
2014    9        3     1   7    4.11   495.1    3.9      44.466
2014    9        3     1  13    4.11   494.9    3.9      44.448
2014    9        3     1  19    4.11   494.7    3.9      44.431
2014    9        3     1  24    4.10   494.5    3.9      44.413
2014    9        3     1  30    4.10   494.3    3.9      44.395
2014    9        3     1  35    4.10   494.2    3.9      44.376
2014    9        3     1  41    4.10   494.0    3.9      44.358
2014    9        3     1  47    4.10   493.8    3.9      44.339
2014    9        3     1  52    4.10   493.6    3.9      44.319
2014    9        3     1  58    4.10   493.5    3.9      44.299
2014    9        3     2   3    4.10   493.3    3.9      44.279
2014    9        3     2   9    4.10   493.1    3.9      44.258
2014    9        3     2  15    4.10   493.0    3.9      44.237
2014    9        3     2  20    4.09   492.8    3.9      44.215
2014    9        3     2  26    4.09   492.6    3.9      44.193
2014    9        3     2  32    4.09   492.4    3.9      44.171
2014    9        3     2  37    4.09   492.3    3.9      44.148
2014    9        3     2  43    4.09   492.1    3.9      44.125
2014    9        3     2  48    4.09   491.9    3.9      44.101
2014    9        3     2  54    4.09   491.8    3.9      44.078
2014    9        3     3   0    4.09   491.6    3.9      44.053
2014    9        3     3   5    4.09   491.4    3.9      44.029
2014    9        3     3  11    4.09   491.2    3.9      44.004
2014    9        3     3  17    4.08   491.1    3.9      43.978
2014    9        3     3  22    4.08   490.9    3.9      43.952
2014    9        3     3  28    4.08   490.7    3.9      43.926
2014    9        3     3  33    4.08   490.5    3.9      43.900
2014    9        3     3  39    4.08   490.4    3.9      43.874
2014    9        3     3  45    4.08   490.2    3.9      43.847
2014    9        3     3  50    4.08   490.0    3.9      43.820
2014    9        3     3  56    4.08   489.9    3.9      43.792
2014    9        3     4   1    4.07   489.7    3.9      43.765
2014    9        3     4   7    4.07   489.5    3.9      43.737
2014    9        3     4  13    4.07   489.3    3.9      43.709
2014    9        3     4  18    4.07   489.2    3.9      43.681
2014    9        3     4  24    4.07   489.0    3.9      43.654
2014    9        3     4  30    4.07   488.8    3.9      43.626
2014    9        3     4  35    4.07   488.6    3.9      43.598
2014    9        3     4  41    4.07   488.5    3.9      43.570
2014    9        3     4  46    4.07   488.3    3.9      43.542
2014    9        3     4  52    4.06   488.1    3.9      43.515
2014    9        3     4  58    4.06   488.0    3.9      43.488
2014    9        3     5   3    4.06   487.8    3.9      43.461
2014    9        3     5   9    4.06   487.6    3.9      43.435
2014    9        3     5  15    4.06   487.4    3.9      43.408
2014    9        3     5  20    4.06   487.3    3.9      43.382
2014    9        3     5  26    4.06   487.1    3.9      43.355
2014    9        3     5  31    4.06   486.9    3.9      43.328
2014    9        3     5  37    4.06   486.7    3.9      43.302
2014    9        3     5  43    4.06   486.6    3.9      43.275
2014    9        3     5  48    4.05   486.4    3.9      43.247
2014    9        3     5  54    4.05   486.2    3.9      43.220
2014    9        3     6   0    4.05   486.0    3.9      43.192
2014    9        3     6   5    4.05   485.9    3.9      43.165
2014    9        3     6  11    4.05   485.7    3.9      43.137
2014    9        3     6  16    4.05   485.5    3.9      43.109
2014    9        3     6  22    4.05   485.3    3.9      43.080
2014    9        3     6  28    4.05   485.2    3.9      43.052
2014    9        3     6  33    4.05   485.0    3.9      43.024
2014    9        3     6  39    4.04   484.8    3.9      42.995
2014    9        3     6  44    4.04   484.6    3.9      42.967
2014    9        3     6  50    4.04   484.4    3.9      42.938
2014    9        3     6  56    4.04   484.3    3.9      42.910
2014    9        3     7   1    4.04   484.1    3.9      42.882
2014    9        3     7   7    4.04   483.9    3.9      42.853
2014    9        3     7  13    4.04   483.7    3.9      42.825
2014    9        3     7  18    4.04   483.5    3.9      42.797
2014    9        3     7  24    4.04   483.3    3.9      42.769
2014    9        3     7  29    4.04   483.2    3.9      42.741
2014    9        3     7  35    4.03   483.0    3.9      42.714
2014    9        3     7  41    4.03   482.8    3.9      42.687
2014    9        3     7  46    4.03   482.6    3.9      42.660
2014    9        3     7  52    4.03   482.4    3.9      42.633
2014    9        3     7  58    4.03   482.2    3.9      42.607
2014    9        3     8   3    4.03   482.1    3.9      42.581
2014    9        3     8   9    4.03   481.9    3.9      42.556
2014    9        3     8  14    4.03   481.7    3.9      42.531
2014    9        3     8  20    4.03   481.5    3.9      42.507
2014    9        3     8  26    4.03   481.3    3.9      42.484
2014    9        3     8  31    4.03   481.1    4.0      42.461
2014    9        3     8  37    4.02   481.0    4.0      42.438
2014    9        3     8  42    4.02   480.8    4.0      42.416
2014    9        3     8  48    4.02   480.6    4.0      42.394
2014    9        3     8  54    4.02   480.4    4.0      42.372
2014    9        3     8  59    4.02   480.3    4.0      42.350
2014    9        3     9   5    4.02   480.1    4.0      42.328
2014    9        3     9  11    4.02   479.9    4.0      42.307
2014    9        3     9  16    4.02   479.7    4.0      42.285
2014    9        3     9  22    4.02   479.5    4.0      42.263
2014    9        3     9  27    4.02   479.4    4.0      42.241
2014    9        3     9  33    4.02   479.2    4.0      42.218
2014    9        3     9  39    4.02   479.0    4.0      42.196
2014    9        3     9  44    4.02   478.8    4.0      42.173
2014    9        3     9  50    4.01   478.7    4.0      42.150
2014    9        3     9  56    4.01   478.5    4.0      42.127
2014    9        3    10   1    4.01   478.3    4.0      42.104
2014    9        3    10   7    4.01   478.1    4.0      42.080
2014    9        3    10  12    4.01   477.9    4.0      42.056
2014    9        3    10  18    4.01   477.7    4.0      42.033
2014    9        3    10  24    4.01   477.6    4.0      42.009
2014    9        3    10  29    4.01   477.4    4.0      41.985
2014    9        3    10  35    4.01   477.2    4.0      41.961
2014    9        3    10  40    4.01   477.0    4.0      41.937
2014    9        3    10  46    4.01   476.8    4.0      41.913
2014    9        3    10  52    4.00   476.6    4.0      41.889
2014    9        3    10  57    4.00   476.4    4.0      41.865
2014    9        3    11   3    4.00   476.2    4.0      41.841
2014    9        3    11   9    4.00   476.1    4.0      41.817
2014    9        3    11  14    4.00   475.9    4.0      41.794
2014    9        3    11  20    4.00   475.7    4.0      41.770
2014    9        3    11  25    4.00   475.5    4.0      41.747
2014    9        3    11  31    4.00   475.3    4.0      41.724
2014    9        3    11  37    4.00   475.1    4.0      41.701
2014    9        3    11  42    4.00   474.9    4.0      41.678
2014    9        3    11  48    4.00   474.8    4.0      41.657
2014    9        3    11  54    4.00   474.6    4.0      41.635
2014    9        3    11  59    4.00   474.4    4.0      41.614
2014    9        3    12   5    4.00   474.2    4.0      41.594
2014    9        3    12  10    4.00   474.0    4.0      41.575
2014    9        3    12  16    3.99   473.9    4.0      41.555
2014    9        3    12  22    3.99   473.7    4.0      41.536
2014    9        3    12  27    3.99   473.5    4.0      41.517
2014    9        3    12  33    3.99   473.3    4.0      41.499
2014    9        3    12  38    3.99   473.2    4.0      41.480
2014    9        3    12  44    3.99   473.0    4.0      41.461
2014    9        3    12  50    3.99   472.8    4.0      41.441
2014    9        3    12  55    3.99   472.6    4.0      41.422
2014    9        3    13   1    3.99   472.5    4.1      41.402
2014    9        3    13   7    3.99   472.3    4.1      41.382
2014    9        3    13  12    3.99   472.1    4.1      41.362
2014    9        3    13  18    3.99   471.9    4.1      41.341
2014    9        3    13  23    3.99   471.8    4.1      41.321
2014    9        3    13  29    3.99   471.6    4.1      41.300
2014    9        3    13  35    3.99   471.4    4.1      41.278
2014    9        3    13  40    3.99   471.2    4.1      41.257
2014    9        3    13  46    3.99   471.1    4.1      41.234
2014    9        3    13  52    3.98   470.9    4.1      41.212
2014    9        3    13  57    3.98   470.7    4.1      41.190
2014    9        3    14   3    3.98   470.5    4.1      41.167
2014    9        3    14   8    3.98   470.4    4.1      41.143
2014    9        3    14  14    3.98   470.2    4.1      41.120
2014    9        3    14  20    3.98   470.0    4.1      41.096
2014    9        3    14  25    3.98   469.8    4.1      41.072
2014    9        3    14  31    3.98   469.7    4.1      41.048
2014    9        3    14  37    3.98   469.5    4.1      41.023
2014    9        3    14  42    3.98   469.3    4.1      40.999
2014    9        3    14  48    3.98   469.1    4.1      40.974
2014    9        3    14  53    3.98   469.0    4.1      40.949
2014    9        3    14  59    3.98   468.8    4.1      40.923
2014    9        3    15   5    3.98   468.6    4.1      40.898
2014    9        3    15  10    3.97   468.5    4.1      40.873
2014    9        3    15  16    3.97   468.3    4.1      40.847
2014    9        3    15  21    3.97   468.1    4.1      40.821
2014    9        3    15  27    3.97   467.9    4.1      40.796
2014    9        3    15  33    3.97   467.8    4.1      40.770
2014    9        3    15  38    3.97   467.6    4.1      40.744
2014    9        3    15  44    3.97   467.4    4.1      40.718
2014    9        3    15  50    3.97   467.3    4.1      40.693
2014    9        3    15  55    3.97   467.1    4.1      40.667
2014    9        3    16   1    3.97   466.9    4.1      40.641
2014    9        3    16   6    3.97   466.7    4.1      40.616
2014    9        3    16  12    3.97   466.6    4.1      40.590
2014    9        3    16  18    3.97   466.4    4.1      40.565
2014    9        3    16  23    3.97   466.2    4.1      40.539
2014    9        3    16  29    3.97   466.1    4.1      40.514
2014    9        3    16  35    3.96   465.9    4.1      40.488
2014    9        3    16  40    3.96   465.7    4.1      40.462
2014    9        3    16  46    3.96   465.6    4.1      40.437
2014    9        3    16  51    3.96   465.4    4.1      40.411
2014    9        3    16  57    3.96   465.2    4.1      40.385
2014    9        3    17   3    3.96   465.0    4.1      40.359
2014    9        3    17   8    3.96   464.9    4.1      40.333
2014    9        3    17  14    3.96   464.7    4.1      40.307
2014    9        3    17  19    3.96   464.5    4.1      40.281
2014    9        3    17  25    3.96   464.4    4.1      40.254
2014    9        3    17  31    3.96   464.2    4.1      40.228
2014    9        3    17  36    3.96   464.0    4.1      40.201
2014    9        3    17  42    3.96   463.8    4.1      40.174
2014    9        3    17  48    3.96   463.6    4.1      40.148
2014    9        3    17  53    3.95   463.5    4.1      40.121
2014    9        3    17  59    3.95   463.3    4.1      40.095
2014    9        3    18   4    3.95   463.1    4.1      40.068
2014    9        3    18  10    3.95   462.9    4.1      40.042
2014    9        3    18  16    3.95   462.7    4.1      40.015
2014    9        3    18  21    3.95   462.6    4.1      39.989
2014    9        3    18  27    3.95   462.4    4.1      39.963
2014    9        3    18  33    3.95   462.2    4.1      39.937
2014    9        3    18  38    3.95   462.0    4.1      39.911
2014    9        3    18  44    3.95   461.8    4.2      39.885
2014    9        3    18  49    3.95   461.7    4.2      39.860
2014    9        3    18  55    3.95   461.5    4.2      39.834
2014    9        3    19   1    3.95   461.3    4.2      39.810
2014    9        3    19   6    3.95   461.1    4.2      39.785
2014    9        3    19  12    3.95   461.0    4.2      39.760
2014    9        3    19  18    3.95   460.8    4.2      39.736
2014    9        3    19  23    3.95   460.6    4.2      39.712
2014    9        3    19  29    3.95   460.4    4.2      39.689
2014    9        3    19  34    3.94   460.3    4.2      39.665
2014    9        3    19  40    3.94   460.1    4.2      39.642
2014    9        3    19  46    3.94   459.9    4.2      39.619
2014    9        3    19  51    3.94   459.8    4.2      39.596
2014    9        3    19  57    3.94   459.6    4.2      39.573
2014    9        3    20   2    3.94   459.4    4.2      39.551
2014    9        3    20   8    3.94   459.2    4.2      39.528
2014    9        3    20  14    3.94   459.1    4.2      39.505
2014    9        3    20  19    3.94   458.9    4.2      39.483
2014    9        3    20  25    3.94   458.7    4.2      39.460
2014    9        3    20  31    3.94   458.6    4.2      39.438
2014    9        3    20  36    3.94   458.4    4.2      39.415
2014    9        3    20  42    3.94   458.2    4.2      39.392
2014    9        3    20  47    3.94   458.0    4.2      39.370
2014    9        3    20  53    3.94   457.9    4.2      39.347
2014    9        3    20  59    3.94   457.7    4.2      39.325
2014    9        3    21   4    3.94   457.5    4.2      39.303
2014    9        3    21  10    3.94   457.3    4.2      39.280
2014    9        3    21  16    3.94   457.2    4.2      39.258
2014    9        3    21  21    3.94   457.0    4.2      39.235
2014    9        3    21  27    3.94   456.8    4.2      39.213
2014    9        3    21  32    3.94   456.6    4.2      39.190
2014    9        3    21  38    3.94   456.5    4.2      39.168
2014    9        3    21  44    3.94   456.3    4.2      39.145
2014    9        3    21  49    3.94   456.1    4.2      39.122
2014    9        3    21  55    3.93   456.0    4.2      39.099
2014    9        3    22   1    3.93   455.8    4.2      39.077
2014    9        3    22   6    3.93   455.6    4.2      39.053
2014    9        3    22  12    3.93   455.5    4.3      39.031
2014    9        3    22  17    3.93   455.3    4.3      39.007
2014    9        3    22  23    3.93   455.1    4.3      38.984
2014    9        3    22  29    3.93   454.9    4.3      38.961
2014    9        3    22  34    3.93   454.8    4.3      38.938
2014    9        3    22  40    3.93   454.6    4.3      38.914
2014    9        3    22  45    3.93   454.4    4.3      38.891
2014    9        3    22  51    3.93   454.3    4.3      38.867
2014    9        3    22  57    3.93   454.1    4.3      38.844
2014    9        3    23   2    3.93   453.9    4.3      38.820
2014    9        3    23   8    3.93   453.8    4.3      38.796
2014    9        3    23  14    3.93   453.6    4.3      38.773
2014    9        3    23  19    3.93   453.4    4.3      38.749
2014    9        3    23  25    3.93   453.3    4.3      38.725
2014    9        3    23  30    3.93   453.1    4.3      38.701
2014    9        3    23  36    3.93   452.9    4.3      38.677
2014    9        3    23  42    3.93   452.7    4.3      38.652
2014    9        3    23  47    3.93   452.6    4.3      38.628
2014    9        3    23  53    3.93   452.4    4.3      38.604
2014    9        3    23  59    3.93   452.2    4.3      38.579
2014    9        4     0   4    3.93   452.1    4.3      38.555
2014    9        4     0  10    3.92   451.9    4.3      38.530
2014    9        4     0  15    3.92   451.7    4.3      38.505
2014    9        4     0  21    3.92   451.6    4.3      38.480
2014    9        4     0  27    3.92   451.4    4.3      38.455
2014    9        4     0  32    3.92   451.2    4.3      38.430
2014    9        4     0  38    3.92   451.1    4.3      38.405
2014    9        4     0  44    3.92   450.9    4.3      38.380
2014    9        4     0  49    3.92   450.7    4.3      38.355
2014    9        4     0  55    3.92   450.6    4.3      38.330
2014    9        4     1   0    3.92   450.4    4.3      38.304
2014    9        4     1   6    3.92   450.2    4.3      38.279
2014    9        4     1  12    3.92   450.1    4.3      38.254
2014    9        4     1  17    3.92   449.9    4.3      38.228
2014    9        4     1  23    3.92   449.7    4.3      38.203
2014    9        4     1  28    3.92   449.6    4.3      38.177
2014    9        4     1  34    3.92   449.4    4.3      38.152
2014    9        4     1  40    3.92   449.2    4.3      38.126
2014    9        4     1  45    3.92   449.1    4.3      38.101
2014    9        4     1  51    3.92   448.9    4.3      38.075
2014    9        4     1  57    3.92   448.7    4.3      38.050
2014    9        4     2   2    3.92   448.5    4.3      38.024
2014    9        4     2   8    3.92   448.4    4.3      37.999
2014    9        4     2  13    3.91   448.2    4.3      37.973
2014    9        4     2  19    3.91   448.0    4.3      37.948
2014    9        4     2  25    3.91   447.9    4.3      37.922
2014    9        4     2  30    3.91   447.7    4.4      37.896
2014    9        4     2  36    3.91   447.5    4.4      37.871
2014    9        4     2  42    3.91   447.4    4.4      37.845
2014    9        4     2  47    3.91   447.2    4.4      37.819
2014    9        4     2  53    3.91   447.0    4.4      37.794
2014    9        4     2  58    3.91   446.9    4.4      37.768
2014    9        4     3   4    3.91   446.7    4.4      37.742
2014    9        4     3  10    3.91   446.5    4.4      37.717
2014    9        4     3  15    3.91   446.4    4.4      37.691
2014    9        4     3  21    3.91   446.2    4.4      37.665
2014    9        4     3  27    3.91   446.0    4.4      37.639
2014    9        4     3  32    3.91   445.9    4.4      37.613
2014    9        4     3  38    3.91   445.7    4.4      37.587
2014    9        4     3  43    3.91   445.5    4.4      37.561
2014    9        4     3  49    3.91   445.4    4.4      37.535
2014    9        4     3  55    3.91   445.2    4.4      37.509
2014    9        4     4   0    3.91   445.0    4.4      37.483
2014    9        4     4   6    3.91   444.8    4.4      37.457
2014    9        4     4  11    3.91   444.7    4.4      37.431
2014    9        4     4  17    3.91   444.5    4.4      37.405
2014    9        4     4  23    3.91   444.3    4.4      37.379
2014    9        4     4  28    3.91   444.2    4.4      37.353
2014    9        4     4  34    3.91   444.0    4.4      37.327
2014    9        4     4  40    3.90   443.8    4.4      37.301
2014    9        4     4  45    3.90   443.7    4.4      37.275
2014    9        4     4  51    3.90   443.5    4.4      37.249
2014    9        4     4  56    3.90   443.3    4.4      37.222
2014    9        4     5   2    3.90   443.1    4.4      37.196
2014    9        4     5   8    3.90   443.0    4.4      37.170
2014    9        4     5  13    3.90   442.8    4.4      37.144
2014    9        4     5  19    3.90   442.6    4.4      37.118
2014    9        4     5  25    3.90   442.5    4.4      37.092
2014    9        4     5  30    3.90   442.3    4.4      37.066
2014    9        4     5  36    3.90   442.1    4.4      37.040
2014    9        4     5  41    3.90   442.0    4.4      37.014
2014    9        4     5  47    3.90   441.8    4.4      36.988
2014    9        4     5  53    3.90   441.6    4.4      36.962
2014    9        4     5  58    3.90   441.4    4.4      36.936
2014    9        4     6   4    3.90   441.3    4.5      36.910
2014    9        4     6  10    3.90   441.1    4.5      36.884
2014    9        4     6  15    3.90   440.9    4.5      36.858
2014    9        4     6  21    3.90   440.8    4.5      36.832
2014    9        4     6  26    3.90   440.6    4.5      36.806
2014    9        4     6  32    3.90   440.4    4.5      36.780
2014    9        4     6  38    3.90   440.3    4.5      36.754
2014    9        4     6  43    3.90   440.1    4.5      36.728
2014    9        4     6  49    3.90   439.9    4.5      36.702
2014    9        4     6  54    3.90   439.7    4.5      36.676
2014    9        4     7   0    3.90   439.6    4.5      36.651
2014    9        4     7   6    3.90   439.4    4.5      36.625
2014    9        4     7  11    3.90   439.2    4.5      36.599
2014    9        4     7  17    3.90   439.1    4.5      36.573
2014    9        4     7  23    3.90   438.9    4.5      36.547
2014    9        4     7  28    3.90   438.7    4.5      36.521
2014    9        4     7  34    3.90   438.6    4.5      36.495
2014    9        4     7  39    3.90   438.4    4.5      36.469
2014    9        4     7  45    3.90   438.2    4.5      36.444
2014    9        4     7  51    3.89   438.0    4.5      36.418
2014    9        4     7  56    3.89   437.9    4.5      36.392
2014    9        4     8   2    3.89   437.7    4.5      36.366
2014    9        4     8   8    3.89   437.5    4.5      36.340
2014    9        4     8  13    3.89   437.4    4.5      36.314
2014    9        4     8  19    3.89   437.2    4.5      36.288
2014    9        4     8  24    3.89   437.0    4.5      36.262
2014    9        4     8  30    3.89   436.9    4.5      36.236
2014    9        4     8  36    3.89   436.7    4.5      36.210
2014    9        4     8  41    3.89   436.5    4.5      36.184
2014    9        4     8  47    3.89   436.3    4.5      36.157
2014    9        4     8  53    3.89   436.2    4.5      36.131
2014    9        4     8  58    3.89   436.0    4.5      36.105
2014    9        4     9   4    3.89   435.8    4.5      36.079
2014    9        4     9   9    3.89   435.7    4.5      36.053
2014    9        4     9  15    3.89   435.5    4.5      36.027
2014    9        4     9  21    3.89   435.3    4.6      36.001
2014    9        4     9  26    3.89   435.1    4.6      35.974
2014    9        4     9  32    3.89   435.0    4.6      35.948
2014    9        4     9  37    3.89   434.8    4.6      35.922
2014    9        4     9  43    3.89   434.6    4.6      35.896
2014    9        4     9  49    3.89   434.5    4.6      35.869
2014    9        4     9  54    3.89   434.3    4.6      35.843
2014    9        4    10   0    3.89   434.1    4.6      35.817
2014    9        4    10   6    3.89   433.9    4.6      35.791
2014    9        4    10  11    3.89   433.8    4.6      35.765
2014    9        4    10  17    3.89   433.6    4.6      35.738
2014    9        4    10  22    3.89   433.4    4.6      35.712
2014    9        4    10  28    3.89   433.3    4.6      35.686
2014    9        4    10  34    3.89   433.1    4.6      35.660
2014    9        4    10  39    3.89   432.9    4.6      35.634
2014    9        4    10  45    3.89   432.7    4.6      35.607
2014    9        4    10  51    3.89   432.6    4.6      35.581
2014    9        4    10  56    3.89   432.4    4.6      35.555
2014    9        4    11   2    3.89   432.2    4.6      35.529
2014    9        4    11   7    3.89   432.1    4.6      35.503
2014    9        4    11  13    3.88   431.9    4.6      35.476
2014    9        4    11  19    3.88   431.7    4.6      35.450
2014    9        4    11  24    3.88   431.5    4.6      35.424
2014    9        4    11  30    3.88   431.4    4.6      35.398
2014    9        4    11  36    3.88   431.2    4.6      35.371
2014    9        4    11  41    3.88   431.0    4.6      35.345
2014    9        4    11  47    3.88   430.9    4.6      35.319
2014    9        4    11  52    3.88   430.7    4.6      35.292
2014    9        4    11  58    3.88   430.5    4.6      35.266
2014    9        4    12   4    3.88   430.3    4.6      35.240
2014    9        4    12   9    3.88   430.2    4.6      35.214
2014    9        4    12  15    3.88   430.0    4.6      35.187
2014    9        4    12  21    3.88   429.8    4.7      35.161
2014    9        4    12  26    3.88   429.6    4.7      35.135
2014    9        4    12  32    3.88   429.5    4.7      35.108
2014    9        4    12  37    3.88   429.3    4.7      35.082
2014    9        4    12  43    3.88   429.1    4.7      35.055
2014    9        4    12  49    3.88   428.9    4.7      35.029
2014    9        4    12  54    3.88   428.8    4.7      35.003
2014    9        4    13   0    3.88   428.6    4.7      34.976
2014    9        4    13   5    3.88   428.4    4.7      34.950
2014    9        4    13  11    3.88   428.3    4.7      34.923
2014    9        4    13  17    3.88   428.1    4.7      34.897
2014    9        4    13  22    3.88   427.9    4.7      34.871
2014    9        4    13  28    3.88   427.7    4.7      34.844
2014    9        4    13  34    3.88   427.6    4.7      34.818
2014    9        4    13  39    3.88   427.4    4.7      34.792
2014    9        4    13  45    3.88   427.2    4.7      34.765
2014    9        4    13  50    3.88   427.0    4.7      34.739
2014    9        4    13  56    3.88   426.9    4.7      34.713
2014    9        4    14   2    3.88   426.7    4.7      34.686
2014    9        4    14   7    3.88   426.5    4.7      34.660
2014    9        4    14  13    3.88   426.3    4.7      34.633
2014    9        4    14  19    3.88   426.2    4.7      34.607
2014    9        4    14  24    3.88   426.0    4.7      34.581
2014    9        4    14  30    3.88   425.8    4.7      34.554
2014    9        4    14  35    3.88   425.6    4.7      34.528
2014    9        4    14  41    3.88   425.5    4.7      34.502
2014    9        4    14  47    3.88   425.3    4.7      34.475
2014    9        4    14  52    3.88   425.1    4.7      34.449
2014    9        4    14  58    3.88   424.9    4.7      34.423
2014    9        4    15   4    3.88   424.8    4.8      34.396
2014    9        4    15   9    3.88   424.6    4.8      34.370
2014    9        4    15  15    3.88   424.4    4.8      34.343
2014    9        4    15  20    3.88   424.2    4.8      34.317
2014    9        4    15  26    3.88   424.1    4.8      34.291
2014    9        4    15  32    3.88   423.9    4.8      34.264
2014    9        4    15  37    3.88   423.7    4.8      34.238
2014    9        4    15  43    3.88   423.5    4.8      34.212
2014    9        4    15  49    3.88   423.4    4.8      34.185
2014    9        4    15  54    3.88   423.2    4.8      34.159
2014    9        4    16   0    3.88   423.0    4.8      34.133
2014    9        4    16   5    3.88   422.8    4.8      34.106
2014    9        4    16  11    3.88   422.7    4.8      34.080
2014    9        4    16  17    3.88   422.5    4.8      34.053
2014    9        4    16  22    3.88   422.3    4.8      34.027
2014    9        4    16  28    3.88   422.1    4.8      34.001
2014    9        4    16  33    3.88   422.0    4.8      33.974
2014    9        4    16  39    3.88   421.8    4.8      33.948
2014    9        4    16  45    3.88   421.6    4.8      33.922
2014    9        4    16  50    3.88   421.4    4.8      33.895
2014    9        4    16  56    3.88   421.3    4.8      33.869
2014    9        4    17   2    3.88   421.1    4.8      33.842
2014    9        4    17   7    3.88   420.9    4.8      33.816
2014    9        4    17  13    3.88   420.7    4.8      33.790
2014    9        4    17  18    3.88   420.6    4.8      33.764
2014    9        4    17  24    3.88   420.4    4.8      33.737
2014    9        4    17  30    3.88   420.2    4.9      33.711
2014    9        4    17  35    3.88   420.0    4.9      33.685
2014    9        4    17  41    3.88   419.9    4.9      33.658
2014    9        4    17  47    3.88   419.7    4.9      33.632
2014    9        4    17  52    3.88   419.5    4.9      33.606
2014    9        4    17  58    3.88   419.3    4.9      33.580
2014    9        4    18   3    3.88   419.2    4.9      33.554
2014    9        4    18   9    3.88   419.0    4.9      33.528
2014    9        4    18  15    3.88   418.8    4.9      33.502
2014    9        4    18  20    3.88   418.6    4.9      33.476
2014    9        4    18  26    3.88   418.5    4.9      33.450
2014    9        4    18  32    3.88   418.3    4.9      33.424
2014    9        4    18  37    3.88   418.1    4.9      33.398
2014    9        4    18  43    3.88   417.9    4.9      33.372
2014    9        4    18  48    3.88   417.7    4.9      33.346
2014    9        4    18  54    3.88   417.6    4.9      33.321
2014    9        4    19   0    3.88   417.4    4.9      33.295
2014    9        4    19   5    3.88   417.2    4.9      33.269
2014    9        4    19  11    3.88   417.0    4.9      33.244
2014    9        4    19  16    3.88   416.9    4.9      33.218
2014    9        4    19  22    3.88   416.7    4.9      33.193
2014    9        4    19  28    3.88   416.5    4.9      33.167
2014    9        4    19  33    3.88   416.3    4.9      33.142
2014    9        4    19  39    3.88   416.2    4.9      33.116
2014    9        4    19  45    3.88   416.0    5.0      33.091
2014    9        4    19  50    3.89   415.8    5.0      33.066
2014    9        4    19  56    3.89   415.6    5.0      33.040
2014    9        4    20   1    3.89   415.5    5.0      33.015
2014    9        4    20   7    3.89   415.3    5.0      32.990
2014    9        4    20  13    3.89   415.1    5.0      32.965
2014    9        4    20  18    3.89   414.9    5.0      32.940
2014    9        4    20  24    3.89   414.8    5.0      32.915
2014    9        4    20  30    3.89   414.6    5.0      32.890
2014    9        4    20  35    3.89   414.4    5.0      32.865
2014    9        4    20  41    3.89   414.2    5.0      32.840
2014    9        4    20  46    3.89   414.1    5.0      32.815
2014    9        4    20  52    3.89   413.9    5.0      32.790
2014    9        4    20  58    3.89   413.7    5.0      32.765
2014    9        4    21   3    3.89   413.5    5.0      32.740
2014    9        4    21   9    3.89   413.4    5.0      32.715
2014    9        4    21  15    3.89   413.2    5.0      32.690
2014    9        4    21  20    3.89   413.0    5.0      32.665
2014    9        4    21  26    3.89   412.8    5.0      32.641
2014    9        4    21  31    3.89   412.6    5.0      32.616
2014    9        4    21  37    3.89   412.5    5.0      32.591
2014    9        4    21  43    3.89   412.3    5.0      32.566
2014    9        4    21  48    3.89   412.1    5.1      32.541
2014    9        4    21  54    3.89   411.9    5.1      32.517
2014    9        4    22   0    3.89   411.8    5.1      32.492
2014    9        4    22   5    3.89   411.6    5.1      32.467
2014    9        4    22  11    3.89   411.4    5.1      32.442
2014    9        4    22  16    3.89   411.2    5.1      32.418
2014    9        4    22  22    3.90   411.1    5.1      32.393
2014    9        4    22  28    3.90   410.9    5.1      32.368
2014    9        4    22  33    3.90   410.7    5.1      32.344
2014    9        4    22  39    3.90   410.5    5.1      32.319
2014    9        4    22  44    3.90   410.4    5.1      32.295
2014    9        4    22  50    3.90   410.2    5.1      32.270
2014    9        4    22  56    3.90   410.0    5.1      32.246
2014    9        4    23   1    3.90   409.8    5.1      32.221
2014    9        4    23   7    3.90   409.7    5.1      32.197
2014    9        4    23  13    3.90   409.5    5.1      32.172
2014    9        4    23  18    3.90   409.3    5.1      32.148
2014    9        4    23  24    3.90   409.1    5.1      32.124
2014    9        4    23  29    3.90   409.0    5.1      32.100
2014    9        4    23  35    3.90   408.8    5.1      32.076
2014    9        4    23  41    3.90   408.6    5.2      32.052
2014    9        4    23  46    3.90   408.4    5.2      32.028
2014    9        4    23  52    3.90   408.3    5.2      32.004
2014    9        4    23  58    3.90   408.1    5.2      31.980
2014    9        5     0   3    3.90   407.9    5.2      31.956
2014    9        5     0   9    3.91   407.7    5.2      31.933
2014    9        5     0  14    3.91   407.6    5.2      31.909
2014    9        5     0  20    3.91   407.4    5.2      31.886
2014    9        5     0  26    3.91   407.2    5.2      31.863
2014    9        5     0  31    3.91   407.0    5.2      31.840
2014    9        5     0  37    3.91   406.9    5.2      31.817
2014    9        5     0  43    3.91   406.7    5.2      31.794
2014    9        5     0  48    3.91   406.5    5.2      31.771
2014    9        5     0  54    3.91   406.3    5.2      31.748
2014    9        5     0  59    3.91   406.2    5.2      31.726
2014    9        5     1   5    3.91   406.0    5.2      31.703
2014    9        5     1  11    3.91   405.8    5.2      31.681
2014    9        5     1  16    3.91   405.6    5.2      31.659
2014    9        5     1  22    3.91   405.5    5.3      31.637
2014    9        5     1  27    3.92   405.3    5.3      31.614
2014    9        5     1  33    3.92   405.1    5.3      31.593
2014    9        5     1  39    3.92   405.0    5.3      31.571
2014    9        5     1  44    3.92   404.8    5.3      31.550
2014    9        5     1  50    3.92   404.6    5.3      31.528
2014    9        5     1  56    3.92   404.4    5.3      31.507
2014    9        5     2   1    3.92   404.3    5.3      31.486
2014    9        5     2   7    3.92   404.1    5.3      31.465
2014    9        5     2  12    3.92   403.9    5.3      31.444
2014    9        5     2  18    3.92   403.8    5.3      31.424
2014    9        5     2  24    3.92   403.6    5.3      31.403
2014    9        5     2  29    3.92   403.4    5.3      31.383
2014    9        5     2  35    3.93   403.3    5.3      31.363
2014    9        5     2  41    3.93   403.1    5.3      31.343
2014    9        5     2  46    3.93   402.9    5.3      31.324
2014    9        5     2  52    3.93   402.8    5.3      31.304
2014    9        5     2  57    3.93   402.6    5.4      31.285
2014    9        5     3   3    3.93   402.4    5.4      31.266
2014    9        5     3   9    3.93   402.3    5.4      31.247
2014    9        5     3  14    3.93   402.1    5.4      31.228
2014    9        5     3  20    3.93   401.9    5.4      31.210
2014    9        5     3  26    3.93   401.8    5.4      31.191
2014    9        5     3  31    3.94   401.6    5.4      31.173
2014    9        5     3  37    3.94   401.4    5.4      31.154
2014    9        5     3  42    3.94   401.3    5.4      31.136
2014    9        5     3  48    3.94   401.1    5.4      31.118
2014    9        5     3  54    3.94   401.0    5.4      31.100
2014    9        5     3  59    3.94   400.8    5.4      31.082
2014    9        5     4   5    3.94   400.6    5.4      31.064
2014    9        5     4  11    3.94   400.5    5.4      31.047
2014    9        5     4  16    3.94   400.3    5.4      31.029
2014    9        5     4  22    3.95   400.2    5.4      31.012
2014    9        5     4  27    3.95   400.0    5.4      30.995
2014    9        5     4  33    3.95   399.8    5.5      30.978
2014    9        5     4  39    3.95   399.7    5.5      30.961
2014    9        5     4  44    3.95   399.5    5.5      30.945
2014    9        5     4  50    3.95   399.4    5.5      30.928
2014    9        5     4  55    3.95   399.2    5.5      30.913
2014    9        5     5   1    3.95   399.0    5.5      30.897
2014    9        5     5   7    3.95   398.9    5.5      30.882
2014    9        5     5  12    3.95   398.7    5.5      30.867
2014    9        5     5  18    3.95   398.6    5.5      30.853
2014    9        5     5  24    3.95   398.4    5.5      30.839
2014    9        5     5  29    3.96   398.3    5.5      30.826
2014    9        5     5  35    3.96   398.1    5.5      30.814
2014    9        5     5  40    3.96   398.0    5.5      30.802
2014    9        5     5  46    3.96   397.8    5.5      30.792
2014    9        5     5  52    3.96   397.7    5.5      30.783
2014    9        5     5  57    3.96   397.5    5.6      30.775
2014    9        5     6   3    3.96   397.4    5.6      30.769
2014    9        5     6   9    3.96   397.2    5.6      30.765
2014    9        5     6  14    3.96   397.1    5.6      30.763
2014    9        5     6  20    3.96   396.9    5.6      30.763
2014    9        5     6  25    3.96   396.8    5.6      30.765
2014    9        5     6  31    3.96   396.7    5.6      30.771
2014    9        5     6  37    3.97   396.5    5.6      30.779
2014    9        5     6  42    3.97   396.4    5.6      30.791
2014    9        5     6  48    3.97   396.3    5.6      30.808
2014    9        5     6  54    3.97   396.2    5.6      30.828
2014    9        5     6  59    3.97   396.1    5.6      30.854
2014    9        5     7   5    3.97   396.0    5.7      30.886
2014    9        5     7  10    3.98   395.9    5.7      30.924
2014    9        5     7  16    3.98   395.8    5.7      30.970
2014    9        5     7  22    3.98   395.7    5.7      31.024
2014    9        5     7  27    3.99   395.7    5.7      31.087
2014    9        5     7  33    3.99   395.6    5.7      31.161
2014    9        5     7  38    3.99   395.6    5.7      31.247
2014    9        5     7  44    4.00   395.5    5.7      31.345
2014    9        5     7  50    4.00   395.5    5.8      31.458
2014    9        5     7  55    4.00   395.5    5.8      31.588
2014    9        5     8   1    4.01   395.5    5.8      31.736
2014    9        5     8   7    4.01   395.6    5.8      31.904
2014    9        5     8  12    4.01   395.6    5.8      32.097
2014    9        5     8  18    4.02   395.7    5.9      32.318
2014    9        5     8  23    4.02   395.8    5.9      32.567
2014    9        5     8  29    4.03   396.0    5.9      32.852
2014    9        5     8  35    4.03   396.1    6.0      33.172
2014    9        5     8  40    4.04   396.3    6.0      33.534
2014    9        5     8  46    4.04   396.6    6.0      33.954
2014    9        5     8  52    4.05   396.9    6.1      34.421
2014    9        5     8  57    4.06   397.2    6.1      34.950
2014    9        5     9   3    4.07   397.6    6.2      35.532
2014    9        5     9   8    4.08   398.1    6.2      36.177
2014    9        5     9  14    4.09   398.6    6.3      36.877
2014    9        5     9  20    4.10   399.2    6.3      37.639
2014    9        5     9  25    4.11   399.8    6.4      38.459
2014    9        5     9  31    4.12   400.5    6.5      39.339
2014    9        5     9  37    4.14   401.2    6.5      40.276
2014    9        5     9  42    4.15   402.0    6.6      41.273
2014    9        5     9  48    4.17   402.9    6.7      42.327
2014    9        5     9  53    4.19   403.8    6.8      43.441
2014    9        5     9  59    4.21   404.7    6.9      44.613
2014    9        5    10   5    4.23   405.8    7.0      45.843
2014    9        5    10  10    4.26   406.8    7.1      47.132
2014    9        5    10  16    4.29   408.0    7.2      48.477
2014    9        5    10  22    4.32   409.2    7.3      49.881
2014    9        5    10  27    4.35   410.4    7.4      51.343
2014    9        5    10  33    4.38   411.7    7.5      52.867
2014    9        5    10  38    4.42   413.1    7.7      54.452
2014    9        5    10  44    4.46   414.5    7.8      56.099
2014    9        5    10  50    4.51   415.9    8.0      57.807
2014    9        5    10  55    4.56   417.4    8.1      59.575
2014    9        5    11   1    4.62   419.0    8.3      61.411
2014    9        5    11   6    4.68   420.6    8.5      63.316
2014    9        5    11  12    4.74   422.2    8.7      65.276
2014    9        5    11  18    4.81   423.9    8.8      67.267
2014    9        5    11  23    4.88   425.8    9.1      69.291
2014    9        5    11  29    4.95   427.6    9.3      71.447
2014    9        5    11  35    5.02   429.5    9.5      73.676
2014    9        5    11  40    5.08   431.4    9.7      75.939
2014    9        5    11  46    5.15   433.3   10.0      78.224
2014    9        5    11  51    5.21   435.2   10.2      80.525
2014    9        5    11  57    5.27   436.9   10.4      82.805
2014    9        5    12   3    5.32   438.6   10.6      84.963
2014    9        5    12   8    5.37   440.2   10.9      87.003
2014    9        5    12  14    5.42   441.6   11.1      88.922
2014    9        5    12  20    5.47   442.9   11.3      90.713
2014    9        5    12  25    5.51   444.1   11.5      92.374
2014    9        5    12  31    5.55   445.2   11.7      93.912
2014    9        5    12  36    5.59   446.2   11.9      95.312
2014    9        5    12  42    5.63   447.2   12.0      96.591
2014    9        5    12  48    5.67   448.0   12.2      97.753
2014    9        5    12  53    5.70   448.7   12.4      98.810
2014    9        5    12  59    5.74   449.4   12.6      99.766
2014    9        5    13   5    5.78   450.0   12.7     100.635
2014    9        5    13  10    5.81   450.5   12.9     101.421
2014    9        5    13  16    5.85   451.0   13.1     102.134
2014    9        5    13  21    5.88   451.5   13.2     102.783
2014    9        5    13  27    5.92   451.9   13.4     103.374
2014    9        5    13  33    5.96   452.3   13.5     103.914
2014    9        5    13  38    6.00   452.6   13.7     104.409
2014    9        5    13  44    6.04   452.9   13.8     104.864
2014    9        5    13  49    6.08   453.3   14.0     105.287
2014    9        5    13  55    6.13   453.5   14.2     105.682
2014    9        5    14   1    6.17   453.8   14.3     106.051
2014    9        5    14   6    6.22   454.1   14.5     106.398
2014    9        5    14  12    6.28   454.3   14.6     106.730
2014    9        5    14  18    6.33   454.6   14.8     107.057
2014    9        5    14  23    6.38   454.8   15.0     107.366
2014    9        5    14  29    6.44   455.0   15.1     107.660
2014    9        5    14  34    6.49   455.2   15.3     107.942
2014    9        5    14  40    6.54   455.5   15.5     108.256
2014    9        5    14  46    6.60   455.8   15.7     108.612
2014    9        5    14  51    6.65   456.1   15.8     109.002
2014    9        5    14  57    6.69   456.5   16.0     109.427
2014    9        5    15   3    6.74   456.8   16.2     109.887
2014    9        5    15   8    6.78   457.2   16.3     110.373
2014    9        5    15  14    6.82   457.5   16.5     110.864
2014    9        5    15  19    6.85   457.9   16.6     111.327
2014    9        5    15  25    6.88   458.2   16.8     111.765
2014    9        5    15  31    6.91   458.5   16.9     112.183
2014    9        5    15  36    6.94   458.8   17.0     112.583
2014    9        5    15  42    6.95   459.1   17.1     112.961
2014    9        5    15  47    6.97   459.3   17.2     113.315
2014    9        5    15  53    6.98   459.5   17.3     113.634
2014    9        5    15  59    6.99   459.7   17.4     113.914
2014    9        5    16   4    7.00   459.9   17.5     114.151
2014    9        5    16  10    7.00   460.0   17.5     114.341
2014    9        5    16  16    7.00   460.1   17.6     114.485
2014    9        5    16  21    6.99   460.2   17.6     114.581
2014    9        5    16  27    6.98   460.2   17.7     114.632
2014    9        5    16  32    6.97   460.2   17.7     114.638
2014    9        5    16  38    6.96   460.1   17.7     114.600
2014    9        5    16  44    6.94   460.1   17.7     114.519
2014    9        5    16  49    6.93   460.0   17.7     114.391
2014    9        5    16  55    6.91   459.8   17.7     114.218
2014    9        5    17   1    6.89   459.7   17.7     114.011
2014    9        5    17   6    6.86   459.5   17.7     113.774
2014    9        5    17  12    6.84   459.3   17.7     113.510
2014    9        5    17  17    6.82   459.1   17.6     113.224
2014    9        5    17  23    6.79   458.8   17.6     112.922
2014    9        5    17  29    6.76   458.6   17.6     112.611
2014    9        5    17  34    6.74   458.4   17.5     112.287
2014    9        5    17  40    6.71   458.1   17.5     111.951
2014    9        5    17  46    6.68   457.9   17.4     111.606
2014    9        5    17  51    6.66   457.6   17.4     111.255
2014    9        5    17  57    6.63   457.4   17.3     110.898
2014    9        5    18   2    6.60   457.1   17.3     110.541
2014    9        5    18   8    6.57   456.9   17.2     110.179
2014    9        5    18  14    6.55   456.6   17.1     109.820
2014    9        5    18  19    6.52   456.4   17.1     109.461
2014    9        5    18  25    6.49   456.1   17.0     109.103
2014    9        5    18  31    6.46   455.9   16.9     108.746
2014    9        5    18  36    6.44   455.7   16.9     108.389
2014    9        5    18  42    6.41   455.4   16.8     108.035
2014    9        5    18  47    6.38   455.2   16.7     107.683
2014    9        5    18  53    6.35   455.0   16.6     107.332
2014    9        5    18  59    6.33   454.7   16.6     106.981
2014    9        5    19   4    6.30   454.5   16.5     106.629
2014    9        5    19  10    6.27   454.3   16.4     106.275
2014    9        5    19  15    6.24   454.1   16.3     105.918
2014    9        5    19  21    6.21   453.8   16.3     105.555
2014    9        5    19  27    6.18   453.6   16.2     105.187
2014    9        5    19  32    6.14   453.3   16.1     104.813
2014    9        5    19  38    6.11   453.1   16.0     104.432
2014    9        5    19  44    6.08   452.8   15.9     104.043
2014    9        5    19  49    6.05   452.6   15.8     103.646
2014    9        5    19  55    6.01   452.3   15.7     103.239
2014    9        5    20   0    5.98   452.0   15.7     102.824
2014    9        5    20   6    5.94   451.8   15.6     102.400
2014    9        5    20  12    5.90   451.5   15.5     101.965
2014    9        5    20  17    5.86   451.2   15.4     101.521
2014    9        5    20  23    5.83   450.9   15.3     101.065
2014    9        5    20  29    5.79   450.6   15.2     100.598
2014    9        5    20  34    5.75   450.2   15.1     100.119
2014    9        5    20  40    5.70   449.9   15.0      99.629
2014    9        5    20  45    5.66   449.6   14.9      99.129
2014    9        5    20  51    5.62   449.2   14.8      98.611
2014    9        5    20  57    5.58   448.9   14.7      98.081
2014    9        5    21   2    5.53   448.5   14.6      97.542
2014    9        5    21   8    5.49   448.1   14.4      96.996
2014    9        5    21  13    5.44   447.7   14.3      96.445
2014    9        5    21  19    5.40   447.3   14.2      95.890
2014    9        5    21  25    5.36   446.9   14.1      95.335
2014    9        5    21  30    5.31   446.5   14.0      94.782
2014    9        5    21  36    5.27   446.2   13.9      94.232
2014    9        5    21  42    5.22   445.8   13.8      93.682
2014    9        5    21  47    5.18   445.4   13.7      93.134
2014    9        5    21  53    5.14   445.0   13.6      92.585
2014    9        5    21  58    5.09   444.6   13.4      92.037
2014    9        5    22   4    5.05   444.2   13.3      91.490
2014    9        5    22  10    5.01   443.8   13.2      90.946
2014    9        5    22  15    4.97   443.4   13.1      90.406
2014    9        5    22  21    4.92   443.1   13.0      89.870
2014    9        5    22  27    4.88   442.7   12.9      89.338
2014    9        5    22  32    4.84   442.3   12.8      88.812
2014    9        5    22  38    4.80   441.9   12.7      88.293
2014    9        5    22  43    4.76   441.6   12.6      87.781
2014    9        5    22  49    4.72   441.2   12.5      87.275
2014    9        5    22  55    4.68   440.9   12.4      86.776
2014    9        5    23   0    4.65   440.5   12.3      86.282
2014    9        5    23   6    4.61   440.1   12.2      85.796
2014    9        5    23  12    4.57   439.8   12.1      85.316
2014    9        5    23  17    4.53   439.4   12.0      84.843
2014    9        5    23  23    4.50   439.1   11.9      84.376
2014    9        5    23  28    4.46   438.7   11.8      83.915
2014    9        5    23  34    4.43   438.4   11.7      83.460
2014    9        5    23  40    4.39   438.0   11.6      83.011
2014    9        5    23  45    4.36   437.7   11.5      82.569
2014    9        5    23  51    4.32   437.4   11.4      82.131
2014    9        5    23  56    4.29   437.0   11.3      81.700
2014    9        6     0   2    4.25   436.7   11.2      81.273
2014    9        6     0   8    4.22   436.4   11.1      80.853
2014    9        6     0  13    4.19   436.0   11.0      80.437
2014    9        6     0  19    4.15   435.7   10.9      80.026
2014    9        6     0  25    4.12   435.4   10.8      79.620
2014    9        6     0  30    4.09   435.1   10.7      79.219
2014    9        6     0  36    4.06   434.7   10.6      78.823
2014    9        6     0  41    4.02   434.4   10.5      78.432
2014    9        6     0  47    3.99   434.1   10.5      78.045
2014    9        6     0  53    3.96   433.8   10.4      77.662
2014    9        6     0  58    3.93   433.4   10.3      77.283
2014    9        6     1   4    3.90   433.1   10.2      76.909
2014    9        6     1  10    3.87   432.8   10.1      76.538
2014    9        6     1  15    3.84   432.5   10.0      76.171
2014    9        6     1  21    3.81   432.2    9.9      75.808
2014    9        6     1  26    3.78   431.9    9.8      75.448
2014    9        6     1  32    3.75   431.5    9.8      75.091
2014    9        6     1  38    3.72   431.2    9.7      74.738
2014    9        6     1  43    3.70   430.9    9.6      74.387
2014    9        6     1  49    3.67   430.6    9.5      74.040
2014    9        6     1  55    3.64   430.3    9.4      73.695
2014    9        6     2   0    3.62   430.0    9.3      73.353
2014    9        6     2   6    3.59   429.7    9.3      73.014
2014    9        6     2  11    3.56   429.4    9.2      72.676
2014    9        6     2  17    3.54   429.1    9.1      72.342
2014    9        6     2  23    3.52   428.8    9.0      72.009
2014    9        6     2  28    3.49   428.5    8.9      71.679
2014    9        6     2  34    3.47   428.2    8.9      71.351
2014    9        6     2  39    3.45   427.9    8.8      71.025
2014    9        6     2  45    3.42   427.6    8.7      70.701
2014    9        6     2  51    3.40   427.3    8.6      70.379
2014    9        6     2  56    3.38   427.0    8.5      70.058
2014    9        6     3   2    3.36   426.7    8.5      69.739
2014    9        6     3   8    3.34   426.4    8.4      69.422
2014    9        6     3  13    3.32   426.1    8.3      69.106
2014    9        6     3  19    3.30   425.8    8.2      68.792
2014    9        6     3  24    3.28   425.5    8.2      68.479
2014    9        6     3  30    3.26   425.2    8.1      68.168
2014    9        6     3  36    3.25   424.9    8.0      67.859
2014    9        6     3  41    3.23   424.6    7.9      67.550
2014    9        6     3  47    3.21   424.4    7.9      67.243
2014    9        6     3  53    3.20   424.1    7.8      66.938
2014    9        6     3  58    3.18   423.8    7.7      66.634
2014    9        6     4   4    3.17   423.5    7.7      66.331
2014    9        6     4   9    3.15   423.2    7.6      66.029
2014    9        6     4  15    3.14   422.9    7.5      65.729
2014    9        6     4  21    3.12   422.7    7.5      65.430
2014    9        6     4  26    3.11   422.4    7.4      65.132
2014    9        6     4  32    3.10   422.1    7.3      64.836
2014    9        6     4  37    3.08   421.8    7.3      64.541
2014    9        6     4  43    3.07   421.5    7.2      64.247
2014    9        6     4  49    3.06   421.3    7.1      63.955
2014    9        6     4  54    3.05   421.0    7.1      63.663
2014    9        6     5   0    3.04   420.7    7.0      63.373
2014    9        6     5   6    3.03   420.4    6.9      63.084
2014    9        6     5  11    3.02   420.1    6.9      62.796
2014    9        6     5  17    3.01   419.9    6.8      62.510
2014    9        6     5  22    3.00   419.6    6.7      62.224
2014    9        6     5  28    2.99   419.3    6.7      61.940
2014    9        6     5  34    2.98   419.0    6.6      61.656
2014    9        6     5  39    2.98   418.8    6.6      61.374
2014    9        6     5  45    2.97   418.5    6.5      61.092
2014    9        6     5  51    2.96   418.2    6.4      60.812
2014    9        6     5  56    2.95   417.9    6.4      60.532
2014    9        6     6   2    2.95   417.6    6.3      60.254
2014    9        6     6   7    2.94   417.4    6.3      59.975
2014    9        6     6  13    2.94   417.1    6.2      59.698
2014    9        6     6  19    2.93   416.8    6.2      59.422
2014    9        6     6  24    2.92   416.6    6.1      59.146
2014    9        6     6  30    2.92   416.3    6.0      58.871
2014    9        6     6  36    2.92   416.0    6.0      58.596
2014    9        6     6  41    2.91   415.7    5.9      58.322
2014    9        6     6  47    2.91   415.5    5.9      58.048
2014    9        6     6  52    2.90   415.2    5.8      57.775
2014    9        6     6  58    2.90   414.9    5.8      57.502
2014    9        6     7   4    2.90   414.7    5.7      57.229
2014    9        6     7   9    2.90   414.4    5.7      56.957
2014    9        6     7  15    2.89   414.1    5.6      56.684
2014    9        6     7  20    2.89   413.9    5.6      56.413
2014    9        6     7  26    2.89   413.6    5.5      56.141
2014    9        6     7  32    2.89   413.3    5.5      55.869
2014    9        6     7  37    2.89   413.1    5.4      55.597
2014    9        6     7  43    2.88   412.8    5.4      55.325
2014    9        6     7  49    2.88   412.6    5.3      55.053
2014    9        6     7  54    2.88   412.3    5.3      54.781
2014    9        6     8   0    2.88   412.1    5.2      54.508
2014    9        6     8   5    2.88   411.8    5.2      54.235
2014    9        6     8  11    2.88   411.6    5.1      53.962
2014    9        6     8  17    2.88   411.3    5.1      53.687
2014    9        6     8  22    2.88   411.1    5.0      53.412
2014    9        6     8  28    2.88   410.8    5.0      53.136
2014    9        6     8  34    2.89   410.6    4.9      52.858
2014    9        6     8  39    2.89   410.3    4.9      52.579
2014    9        6     8  45    2.89   410.1    4.9      52.299
2014    9        6     8  50    2.89   409.8    4.8      52.017
2014    9        6     8  56    2.89   409.6    4.8      51.734
2014    9        6     9   2    2.89   409.4    4.7      51.450
2014    9        6     9   7    2.90   409.1    4.7      51.163
2014    9        6     9  13    2.90   408.9    4.6      50.876
2014    9        6     9  19    2.90   408.7    4.6      50.587
2014    9        6     9  24    2.90   408.5    4.6      50.297
2014    9        6     9  30    2.91   408.2    4.5      50.006
2014    9        6     9  35    2.91   408.0    4.5      49.714
2014    9        6     9  41    2.91   407.8    4.4      49.420
2014    9        6     9  47    2.92   407.6    4.4      49.125
2014    9        6     9  52    2.92   407.4    4.4      48.829
2014    9        6     9  58    2.92   407.2    4.3      48.532
2014    9        6    10   3    2.93   407.0    4.3      48.234
2014    9        6    10   9    2.93   406.8    4.2      47.935
2014    9        6    10  15    2.93   406.6    4.2      47.635
2014    9        6    10  20    2.94   406.4    4.2      47.333
2014    9        6    10  26    2.94   406.2    4.1      47.031
2014    9        6    10  32    2.95   406.0    4.1      46.727
2014    9        6    10  37    2.95   405.8    4.1      46.423
2014    9        6    10  43    2.95   405.6    4.0      46.118
2014    9        6    10  48    2.96   405.4    4.0      45.812
2014    9        6    10  54    2.96   405.2    3.9      45.505
2014    9        6    11   0    2.97   405.0    3.9      45.197
2014    9        6    11   5    2.97   404.9    3.9      44.888
2014    9        6    11  11    2.98   404.7    3.8      44.578
2014    9        6    11  17    2.98   404.5    3.8      44.268
2014    9        6    11  22    2.99   404.4    3.8      43.958
2014    9        6    11  28    2.99   404.2    3.7      43.647
2014    9        6    11  33    3.00   404.0    3.7      43.335
2014    9        6    11  39    3.00   403.9    3.7      43.023
2014    9        6    11  45    3.01   403.7    3.7      42.711
2014    9        6    11  50    3.02   403.5    3.6      42.398
2014    9        6    11  56    3.02   403.4    3.6      42.086
2014    9        6    12   1    3.03   403.2    3.6      41.774
2014    9        6    12   7    3.03   403.1    3.5      41.462
2014    9        6    12  13    3.04   402.9    3.5      41.150
2014    9        6    12  18    3.05   402.8    3.5      40.838
2014    9        6    12  24    3.05   402.6    3.4      40.527
2014    9        6    12  30    3.06   402.5    3.4      40.217
2014    9        6    12  35    3.06   402.4    3.4      39.908
2014    9        6    12  41    3.07   402.2    3.4      39.599
2014    9        6    12  46    3.08   402.1    3.3      39.292
2014    9        6    12  52    3.08   401.9    3.3      38.986
2014    9        6    12  58    3.09   401.8    3.3      38.681
2014    9        6    13   3    3.10   401.7    3.3      38.378
2014    9        6    13   9    3.10   401.5    3.2      38.076
2014    9        6    13  15    3.11   401.4    3.2      37.776
2014    9        6    13  20    3.12   401.3    3.2      37.479
2014    9        6    13  26    3.12   401.1    3.2      37.183
2014    9        6    13  31    3.13   401.0    3.2      36.890
2014    9        6    13  37    3.13   400.9    3.1      36.599
2014    9        6    13  43    3.14   400.7    3.1      36.311
2014    9        6    13  48    3.15   400.6    3.1      36.026
2014    9        6    13  54    3.15   400.5    3.1      35.743
2014    9        6    13  59    3.16   400.4    3.1      35.464
2014    9        6    14   5    3.17   400.2    3.0      35.187
2014    9        6    14  11    3.17   400.1    3.0      34.914
2014    9        6    14  16    3.18   400.0    3.0      34.645
2014    9        6    14  22    3.19   399.9    3.0      34.379
2014    9        6    14  28    3.19   399.7    3.0      34.116
2014    9        6    14  33    3.20   399.6    3.0      33.858
2014    9        6    14  39    3.21   399.5    2.9      33.603
2014    9        6    14  44    3.22   399.4    2.9      33.352
2014    9        6    14  50    3.22   399.2    2.9      33.105
2014    9        6    14  56    3.23   399.1    2.9      32.863
2014    9        6    15   1    3.24   399.0    2.9      32.625
2014    9        6    15   7    3.24   398.9    2.9      32.391
2014    9        6    15  13    3.25   398.7    2.9      32.161
2014    9        6    15  18    3.26   398.6    2.8      31.935
2014    9        6    15  24    3.26   398.5    2.8      31.715
2014    9        6    15  29    3.27   398.4    2.8      31.498
2014    9        6    15  35    3.28   398.2    2.8      31.286
2014    9        6    15  41    3.28   398.1    2.8      31.078
2014    9        6    15  46    3.29   398.0    2.8      30.875
2014    9        6    15  52    3.30   397.9    2.8      30.677
2014    9        6    15  58    3.30   397.7    2.8      30.482
2014    9        6    16   3    3.31   397.6    2.8      30.293
2014    9        6    16   9    3.32   397.5    2.7      30.107
2014    9        6    16  14    3.33   397.4    2.7      29.926
2014    9        6    16  20    3.33   397.3    2.7      29.750
2014    9        6    16  26    3.34   397.1    2.7      29.578
2014    9        6    16  31    3.35   397.0    2.7      29.410
2014    9        6    16  37    3.35   396.9    2.7      29.246
2014    9        6    16  42    3.36   396.8    2.7      29.086
2014    9        6    16  48    3.37   396.7    2.7      28.931
2014    9        6    16  54    3.38   396.6    2.7      28.779
2014    9        6    16  59    3.38   396.4    2.7      28.632
2014    9        6    17   5    3.39   396.3    2.7      28.488
2014    9        6    17  11    3.40   396.2    2.7      28.348
2014    9        6    17  16    3.41   396.1    2.7      28.212
2014    9        6    17  22    3.41   396.0    2.6      28.079
2014    9        6    17  27    3.42   395.9    2.6      27.951
2014    9        6    17  33    3.43   395.8    2.6      27.825
2014    9        6    17  39    3.44   395.7    2.6      27.703
2014    9        6    17  44    3.45   395.6    2.6      27.584
2014    9        6    17  50    3.45   395.5    2.6      27.469
2014    9        6    17  56    3.46   395.4    2.6      27.357
2014    9        6    18   1    3.47   395.3    2.6      27.248
2014    9        6    18   7    3.48   395.2    2.6      27.141
2014    9        6    18  12    3.48   395.1    2.6      27.038
2014    9        6    18  18    3.49   395.0    2.6      26.938
2014    9        6    18  24    3.50   394.9    2.6      26.840
2014    9        6    18  29    3.50   394.8    2.6      26.745
2014    9        6    18  35    3.51   394.7    2.6      26.653
2014    9        6    18  40    3.52   394.6    2.6      26.563
2014    9        6    18  46    3.53   394.5    2.6      26.476
2014    9        6    18  52    3.53   394.5    2.6      26.391
2014    9        6    18  57    3.54   394.4    2.6      26.308
2014    9        6    19   3    3.55   394.3    2.6      26.228
2014    9        6    19   9    3.55   394.2    2.5      26.150
2014    9        6    19  14    3.56   394.1    2.5      26.074
2014    9        6    19  20    3.56   394.0    2.5      26.000
2014    9        6    19  25    3.57   393.9    2.5      25.929
2014    9        6    19  31    3.58   393.9    2.5      25.859
2014    9        6    19  37    3.58   393.8    2.5      25.791
2014    9        6    19  42    3.59   393.7    2.5      25.726
2014    9        6    19  48    3.60   393.6    2.5      25.662
2014    9        6    19  54    3.60   393.5    2.5      25.599
2014    9        6    19  59    3.61   393.4    2.5      25.538
2014    9        6    20   5    3.61   393.3    2.5      25.479
2014    9        6    20  10    3.62   393.2    2.5      25.421
2014    9        6    20  16    3.63   393.1    2.5      25.363
2014    9        6    20  22    3.63   393.0    2.5      25.307
2014    9        6    20  27    3.64   392.9    2.5      25.251
2014    9        6    20  33    3.64   392.8    2.5      25.196
2014    9        6    20  38    3.65   392.7    2.5      25.141
2014    9        6    20  44    3.65   392.6    2.5      25.087
2014    9        6    20  50    3.66   392.5    2.5      25.034
2014    9        6    20  55    3.66   392.5    2.5      24.981
2014    9        6    21   1    3.67   392.4    2.5      24.928
2014    9        6    21   7    3.67   392.3    2.5      24.876
2014    9        6    21  12    3.68   392.2    2.5      24.825
2014    9        6    21  18    3.69   392.1    2.5      24.774
2014    9        6    21  23    3.69   392.0    2.5      24.724
2014    9        6    21  29    3.70   391.9    2.5      24.674
2014    9        6    21  35    3.70   391.8    2.5      24.626
2014    9        6    21  40    3.71   391.7    2.5      24.578
2014    9        6    21  46    3.71   391.6    2.5      24.531
2014    9        6    21  52    3.72   391.5    2.5      24.485
2014    9        6    21  57    3.72   391.4    2.5      24.440
2014    9        6    22   3    3.73   391.3    2.5      24.396
2014    9        6    22   8    3.73   391.2    2.5      24.353
2014    9        6    22  14    3.74   391.1    2.5      24.311
2014    9        6    22  20    3.74   391.0    2.5      24.270
2014    9        6    22  25    3.75   390.9    2.5      24.229
2014    9        6    22  31    3.75   390.8    2.5      24.189
2014    9        6    22  37    3.76   390.7    2.5      24.150
2014    9        6    22  42    3.76   390.6    2.5      24.111
2014    9        6    22  48    3.77   390.5    2.5      24.073
2014    9        6    22  53    3.78   390.4    2.5      24.035
2014    9        6    22  59    3.78   390.3    2.5      23.998
2014    9        6    23   5    3.79   390.2    2.5      23.961
2014    9        6    23  10    3.79   390.1    2.5      23.925
2014    9        6    23  16    3.80   390.0    2.5      23.890
2014    9        6    23  21    3.80   389.9    2.5      23.856
2014    9        6    23  27    3.81   389.7    2.5      23.823
2014    9        6    23  33    3.81   389.6    2.5      23.791
2014    9        6    23  38    3.82   389.5    2.5      23.761
2014    9        6    23  44    3.82   389.4    2.5      23.732
2014    9        6    23  50    3.83   389.3    2.5      23.704
2014    9        6    23  55    3.83   389.3    2.5      23.678
2014    9        7     0   1    3.84   389.2    2.5      23.654
2014    9        7     0   6    3.84   389.1    2.5      23.632
2014    9        7     0  12    3.85   389.0    2.5      23.611
2014    9        7     0  18    3.85   388.9    2.5      23.593
2014    9        7     0  23    3.86   388.8    2.6      23.576
2014    9        7     0  29    3.86   388.7    2.6      23.562
2014    9        7     0  35    3.87   388.6    2.6      23.550
2014    9        7     0  40    3.88   388.5    2.6      23.540
2014    9        7     0  46    3.88   388.4    2.6      23.532
2014    9        7     0  51    3.89   388.4    2.6      23.526
2014    9        7     0  57    3.89   388.3    2.6      23.522
2014    9        7     1   3    3.90   388.2    2.6      23.521
2014    9        7     1   8    3.90   388.1    2.6      23.522
2014    9        7     1  14    3.91   388.0    2.7      23.525
2014    9        7     1  19    3.91   388.0    2.7      23.530
2014    9        7     1  25    3.92   387.9    2.7      23.537
2014    9        7     1  31    3.92   387.8    2.7      23.547
2014    9        7     1  36    3.93   387.7    2.7      23.558
2014    9        7     1  42    3.93   387.7    2.7      23.571
2014    9        7     1  48    3.94   387.6    2.8      23.587
2014    9        7     1  53    3.94   387.5    2.8      23.604
2014    9        7     1  59    3.95   387.5    2.8      23.623
2014    9        7     2   4    3.95   387.4    2.8      23.643
2014    9        7     2  10    3.96   387.3    2.8      23.666
2014    9        7     2  16    3.96   387.3    2.8      23.689
2014    9        7     2  21    3.97   387.2    2.9      23.715
2014    9        7     2  27    3.97   387.1    2.9      23.742
2014    9        7     2  33    3.98   387.1    2.9      23.770
2014    9        7     2  38    3.98   387.0    2.9      23.799
2014    9        7     2  44    3.99   386.9    2.9      23.830
2014    9        7     2  49    3.99   386.9    3.0      23.862
2014    9        7     2  55    4.00   386.8    3.0      23.895
2014    9        7     3   1    4.00   386.7    3.0      23.929
2014    9        7     3   6    4.00   386.7    3.0      23.963
2014    9        7     3  12    4.01   386.6    3.0      23.999
2014    9        7     3  17    4.01   386.5    3.1      24.035
2014    9        7     3  23    4.02   386.5    3.1      24.072
2014    9        7     3  29    4.02   386.4    3.1      24.109
2014    9        7     3  34    4.03   386.3    3.1      24.147
2014    9        7     3  40    4.03   386.3    3.1      24.185
2014    9        7     3  46    4.03   386.2    3.2      24.223
2014    9        7     3  51    4.04   386.1    3.2      24.262
2014    9        7     3  57    4.04   386.1    3.2      24.301
2014    9        7     4   2    4.05   386.0    3.2      24.340
2014    9        7     4   8    4.05   385.9    3.3      24.379
2014    9        7     4  14    4.05   385.8    3.3      24.418
2014    9        7     4  19    4.06   385.8    3.3      24.457
2014    9        7     4  25    4.06   385.7    3.3      24.496
2014    9        7     4  31    4.07   385.6    3.4      24.535
2014    9        7     4  36    4.07   385.5    3.4      24.574
2014    9        7     4  42    4.07   385.5    3.4      24.612
2014    9        7     4  47    4.08   385.4    3.4      24.650
2014    9        7     4  53    4.08   385.3    3.5      24.688
2014    9        7     4  59    4.08   385.2    3.5      24.725
2014    9        7     5   4    4.09   385.1    3.5      24.762
2014    9        7     5  10    4.09   385.1    3.5      24.799
2014    9        7     5  15    4.09   385.0    3.6      24.834
2014    9        7     5  21    4.10   384.9    3.6      24.870
2014    9        7     5  27    4.10   384.8    3.6      24.905
2014    9        7     5  32    4.11   384.7    3.6      24.939
2014    9        7     5  38    4.11   384.6    3.7      24.974
2014    9        7     5  44    4.11   384.5    3.7      25.007
2014    9        7     5  49    4.12   384.4    3.7      25.040
2014    9        7     5  55    4.12   384.3    3.7      25.072
2014    9        7     6   0    4.12   384.2    3.8      25.104
2014    9        7     6   6    4.13   384.1    3.8      25.135
2014    9        7     6  12    4.13   384.0    3.8      25.166
2014    9        7     6  17    4.13   383.9    3.8      25.196
2014    9        7     6  23    4.14   383.8    3.9      25.225
2014    9        7     6  29    4.14   383.7    3.9      25.255
2014    9        7     6  34    4.14   383.6    3.9      25.283
2014    9        7     6  40    4.15   383.5    3.9      25.311
2014    9        7     6  45    4.15   383.4    4.0      25.339
2014    9        7     6  51    4.15   383.3    4.0      25.367
2014    9        7     6  57    4.16   383.2    4.0      25.394
2014    9        7     7   2    4.16   383.1    4.0      25.421
2014    9        7     7   8    4.16   383.0    4.1      25.447
2014    9        7     7  14    4.17   382.9    4.1      25.473
2014    9        7     7  19    4.17   382.7    4.1      25.499
2014    9        7     7  25    4.17   382.6    4.1      25.525
2014    9        7     7  30    4.18   382.5    4.2      25.551
2014    9        7     7  36    4.18   382.4    4.2      25.577
2014    9        7     7  42    4.18   382.3    4.2      25.603
2014    9        7     7  47    4.19   382.2    4.2      25.629
2014    9        7     7  53    4.19   382.0    4.3      25.655
2014    9        7     7  58    4.19   381.9    4.3      25.681
2014    9        7     8   4    4.20   381.8    4.3      25.708
2014    9        7     8  10    4.20   381.7    4.3      25.734
2014    9        7     8  15    4.20   381.6    4.4      25.761
2014    9        7     8  21    4.21   381.5    4.4      25.788
2014    9        7     8  27    4.21   381.3    4.4      25.816
2014    9        7     8  32    4.22   381.2    4.4      25.844
2014    9        7     8  38    4.22   381.1    4.5      25.872
2014    9        7     8  43    4.22   381.0    4.5      25.901
2014    9        7     8  49    4.23   380.9    4.5      25.930
2014    9        7     8  55    4.23   380.7    4.6      25.960
2014    9        7     9   0    4.23   380.6    4.6      25.990
2014    9        7     9   6    4.24   380.5    4.6      26.021
2014    9        7     9  12    4.24   380.4    4.6      26.053
2014    9        7     9  17    4.25   380.3    4.7      26.085
2014    9        7     9  23    4.25   380.1    4.7      26.117
2014    9        7     9  28    4.25   380.0    4.7      26.151
2014    9        7     9  34    4.26   379.9    4.7      26.185
2014    9        7     9  40    4.26   379.8    4.8      26.219
2014    9        7     9  45    4.26   379.6    4.8      26.255
2014    9        7     9  51    4.27   379.5    4.8      26.291
2014    9        7     9  56    4.27   379.4    4.9      26.328
2014    9        7    10   2    4.28   379.3    4.9      26.366
2014    9        7    10   8    4.28   379.2    4.9      26.405
2014    9        7    10  13    4.28   379.0    4.9      26.444
2014    9        7    10  19    4.29   378.9    5.0      26.485
2014    9        7    10  25    4.29   378.8    5.0      26.526
2014    9        7    10  30    4.30   378.7    5.0      26.569
2014    9        7    10  36    4.30   378.6    5.1      26.612
2014    9        7    10  41    4.30   378.5    5.1      26.656
2014    9        7    10  47    4.31   378.3    5.1      26.702
2014    9        7    10  53    4.31   378.2    5.2      26.748
2014    9        7    10  58    4.32   378.1    5.2      26.796
2014    9        7    11   4    4.32   378.0    5.2      26.844
2014    9        7    11  10    4.32   377.9    5.2      26.894
2014    9        7    11  15    4.33   377.8    5.3      26.945
2014    9        7    11  21    4.33   377.7    5.3      26.996
2014    9        7    11  26    4.34   377.5    5.3      27.049
2014    9        7    11  32    4.34   377.4    5.4      27.103
2014    9        7    11  38    4.34   377.3    5.4      27.158
2014    9        7    11  43    4.35   377.2    5.4      27.215
2014    9        7    11  49    4.35   377.1    5.5      27.272
2014    9        7    11  54    4.36   377.0    5.5      27.330
2014    9        7    12   0    4.36   376.9    5.5      27.390
2014    9        7    12   6    4.36   376.8    5.6      27.451
2014    9        7    12  11    4.37   376.7    5.6      27.512
2014    9        7    12  17    4.37   376.6    5.6      27.575
2014    9        7    12  23    4.38   376.5    5.7      27.639
2014    9        7    12  28    4.38   376.4    5.7      27.704
2014    9        7    12  34    4.39   376.3    5.7      27.770
2014    9        7    12  39    4.39   376.2    5.8      27.837
2014    9        7    12  45    4.39   376.1    5.8      27.905
2014    9        7    12  51    4.40   376.0    5.8      27.975
2014    9        7    12  56    4.40   375.9    5.8      28.046
2014    9        7    13   2    4.41   375.8    5.9      28.118
2014    9        7    13   8    4.41   375.7    5.9      28.191
2014    9        7    13  13    4.42   375.6    6.0      28.266
2014    9        7    13  19    4.42   375.5    6.0      28.343
2014    9        7    13  24    4.43   375.4    6.0      28.420
2014    9        7    13  30    4.43   375.4    6.1      28.499
2014    9        7    13  36    4.44   375.3    6.1      28.579
2014    9        7    13  41    4.44   375.2    6.1      28.660
2014    9        7    13  47    4.44   375.1    6.2      28.742
2014    9        7    13  52    4.45   375.0    6.2      28.825
2014    9        7    13  58    4.45   374.9    6.2      28.909
2014    9        7    14   4    4.46   374.9    6.3      28.995
2014    9        7    14   9    4.46   374.8    6.3      29.081
2014    9        7    14  15    4.47   374.7    6.3      29.168
2014    9        7    14  21    4.47   374.6    6.4      29.256
2014    9        7    14  26    4.48   374.6    6.4      29.346
2014    9        7    14  32    4.48   374.5    6.4      29.436
2014    9        7    14  37    4.49   374.4    6.5      29.526
2014    9        7    14  43    4.49   374.3    6.5      29.618
2014    9        7    14  49    4.50   374.3    6.5      29.710
2014    9        7    14  54    4.50   374.2    6.6      29.803
2014    9        7    15   0    4.51   374.1    6.6      29.897
2014    9        7    15   6    4.51   374.1    6.6      29.991
2014    9        7    15  11    4.52   374.0    6.7      30.087
2014    9        7    15  17    4.52   373.9    6.7      30.183
2014    9        7    15  22    4.53   373.9    6.7      30.280
2014    9        7    15  28    4.53   373.8    6.8      30.378
2014    9        7    15  34    4.54   373.8    6.8      30.478
2014    9        7    15  39    4.54   373.7    6.8      30.578
2014    9        7    15  45    4.55   373.7    6.9      30.680
2014    9        7    15  50    4.55   373.6    6.9      30.783
2014    9        7    15  56    4.56   373.6    7.0      30.887
2014    9        7    16   2    4.56   373.5    7.0      30.992
2014    9        7    16   7    4.57   373.5    7.0      31.099
2014    9        7    16  13    4.57   373.4    7.1      31.206
2014    9        7    16  19    4.58   373.4    7.1      31.315
2014    9        7    16  24    4.58   373.3    7.1      31.424
2014    9        7    16  30    4.59   373.3    7.2      31.534
2014    9        7    16  35    4.59   373.2    7.2      31.645
2014    9        7    16  41    4.60   373.2    7.2      31.757
2014    9        7    16  47    4.60   373.2    7.3      31.870
2014    9        7    16  52    4.61   373.1    7.3      31.983
2014    9        7    16  58    4.61   373.1    7.3      32.096
2014    9        7    17   4    4.62   373.0    7.3      32.210
2014    9        7    17   9    4.62   373.0    7.4      32.325
2014    9        7    17  15    4.63   372.9    7.4      32.440
2014    9        7    17  20    4.63   372.9    7.4      32.555
2014    9        7    17  26    4.64   372.9    7.5      32.671
2014    9        7    17  32    4.64   372.8    7.5      32.786
2014    9        7    17  37    4.65   372.8    7.5      32.903
2014    9        7    17  43    4.66   372.8    7.6      33.019
2014    9        7    17  48    4.66   372.7    7.6      33.135
2014    9        7    17  54    4.67   372.7    7.6      33.251
2014    9        7    18   0    4.67   372.7    7.7      33.367
2014    9        7    18   5    4.68   372.6    7.7      33.484
2014    9        7    18  11    4.68   372.6    7.7      33.600
2014    9        7    18  17    4.69   372.6    7.7      33.716
2014    9        7    18  22    4.69   372.5    7.8      33.832
2014    9        7    18  28    4.70   372.5    7.8      33.948
2014    9        7    18  33    4.70   372.5    7.8      34.064
2014    9        7    18  39    4.71   372.4    7.9      34.179
2014    9        7    18  45    4.71   372.4    7.9      34.295
2014    9        7    18  50    4.72   372.4    7.9      34.410
2014    9        7    18  56    4.73   372.3    7.9      34.525
2014    9        7    19   2    4.73   372.3    8.0      34.639
2014    9        7    19   7    4.74   372.3    8.0      34.753
2014    9        7    19  13    4.74   372.2    8.0      34.867
2014    9        7    19  18    4.75   372.2    8.0      34.980
2014    9        7    19  24    4.75   372.2    8.1      35.092
2014    9        7    19  30    4.76   372.2    8.1      35.205
2014    9        7    19  35    4.77   372.1    8.1      35.316
2014    9        7    19  41    4.77   372.1    8.2      35.428
2014    9        7    19  46    4.78   372.1    8.2      35.538
2014    9        7    19  52    4.78   372.1    8.2      35.648
2014    9        7    19  58    4.79   372.0    8.2      35.758
2014    9        7    20   3    4.80   372.0    8.3      35.867
2014    9        7    20   9    4.80   372.0    8.3      35.975
2014    9        7    20  15    4.81   372.0    8.3      36.083
2014    9        7    20  20    4.82   371.9    8.3      36.190
2014    9        7    20  26    4.82   371.9    8.4      36.296
2014    9        7    20  31    4.83   371.9    8.4      36.402
2014    9        7    20  37    4.84   371.9    8.4      36.508
2014    9        7    20  43    4.84   371.9    8.4      36.613
2014    9        7    20  48    4.85   371.8    8.5      36.717
2014    9        7    20  54    4.86   371.8    8.5      36.821
2014    9        7    21   0    4.86   371.8    8.5      36.925
2014    9        7    21   5    4.87   371.8    8.5      37.028
2014    9        7    21  11    4.88   371.8    8.6      37.131
2014    9        7    21  16    4.88   371.8    8.6      37.233
2014    9        7    21  22    4.89   371.7    8.6      37.335
2014    9        7    21  28    4.90   371.7    8.6      37.436
2014    9        7    21  33    4.91   371.7    8.7      37.537
2014    9        7    21  39    4.91   371.7    8.7      37.637
2014    9        7    21  45    4.92   371.7    8.7      37.737
2014    9        7    21  50    4.93   371.7    8.7      37.836
2014    9        7    21  56    4.94   371.7    8.8      37.934
2014    9        7    22   1    4.94   371.6    8.8      38.032
2014    9        7    22   7    4.95   371.6    8.8      38.129
2014    9        7    22  13    4.96   371.6    8.8      38.226
2014    9        7    22  18    4.97   371.6    8.9      38.323
2014    9        7    22  24    4.98   371.6    8.9      38.419
2014    9        7    22  29    4.98   371.6    8.9      38.514
2014    9        7    22  35    4.99   371.6    8.9      38.610
2014    9        7    22  41    5.00   371.6    8.9      38.706
2014    9        7    22  46    5.01   371.6    9.0      38.801
2014    9        7    22  52    5.02   371.6    9.0      38.896
2014    9        7    22  58    5.03   371.6    9.0      38.991
2014    9        7    23   3    5.04   371.6    9.0      39.086
2014    9        7    23   9    5.05   371.6    9.1      39.180
2014    9        7    23  14    5.05   371.6    9.1      39.274
2014    9        7    23  20    5.06   371.6    9.1      39.367
2014    9        7    23  26    5.07   371.6    9.1      39.460
2014    9        7    23  31    5.08   371.6    9.1      39.552
2014    9        7    23  37    5.09   371.6    9.2      39.644
2014    9        7    23  42    5.10   371.6    9.2      39.735
2014    9        7    23  48    5.11   371.6    9.2      39.825
2014    9        7    23  54    5.12   371.6    9.2      39.915
2014    9        7    23  59    5.13   371.6    9.3      40.005
2014    9        8     0   5    5.14   371.6    9.3      40.094
2014    9        8     0  11    5.15   371.6    9.3      40.183
2014    9        8     0  16    5.16   371.6    9.3      40.271
2014    9        8     0  22    5.17   371.6    9.3      40.359
2014    9        8     0  27    5.18   371.6    9.4      40.446
2014    9        8     0  33    5.19   371.6    9.4      40.533
2014    9        8     0  39    5.20   371.6    9.4      40.620
2014    9        8     0  44    5.21   371.6    9.4      40.708
2014    9        8     0  50    5.23   371.6    9.5      40.795
2014    9        8     0  56    5.24   371.6    9.5      40.883
2014    9        8     1   1    5.25   371.6    9.5      40.972
2014    9        8     1   7    5.26   371.6    9.5      41.062
2014    9        8     1  12    5.27   371.6    9.5      41.153
2014    9        8     1  18    5.28   371.7    9.6      41.244
2014    9        8     1  24    5.29   371.7    9.6      41.336
2014    9        8     1  29    5.30   371.7    9.6      41.428
2014    9        8     1  35    5.32   371.7    9.6      41.520
2014    9        8     1  41    5.33   371.7    9.6      41.611
2014    9        8     1  46    5.34   371.7    9.7      41.702
2014    9        8     1  52    5.35   371.7    9.7      41.793
2014    9        8     1  57    5.36   371.7    9.7      41.882
2014    9        8     2   3    5.37   371.7    9.7      41.971
2014    9        8     2   9    5.39   371.8    9.7      42.060
2014    9        8     2  14    5.40   371.8    9.8      42.147
2014    9        8     2  20    5.41   371.8    9.8      42.234
2014    9        8     2  25    5.42   371.8    9.8      42.320
2014    9        8     2  31    5.43   371.8    9.8      42.406
2014    9        8     2  37    5.45   371.8    9.8      42.490
2014    9        8     2  42    5.46   371.9    9.8      42.574
2014    9        8     2  48    5.47   371.9    9.9      42.657
2014    9        8     2  54    5.48   371.9    9.9      42.739
2014    9        8     2  59    5.49   371.9    9.9      42.821
2014    9        8     3   5    5.50   371.9    9.9      42.901
2014    9        8     3  10    5.52   372.0    9.9      42.981
2014    9        8     3  16    5.53   372.0    9.9      43.060
2014    9        8     3  22    5.54   372.0   10.0      43.138
2014    9        8     3  27    5.55   372.1   10.0      43.215
2014    9        8     3  33    5.57   372.1   10.0      43.291
2014    9        8     3  39    5.58   372.1   10.0      43.367
2014    9        8     3  44    5.59   372.1   10.0      43.443
2014    9        8     3  50    5.60   372.2   10.0      43.517
2014    9        8     3  55    5.61   372.2   10.0      43.591
2014    9        8     4   1    5.63   372.2   10.1      43.664
2014    9        8     4   7    5.64   372.3   10.1      43.737
2014    9        8     4  12    5.65   372.3   10.1      43.809
2014    9        8     4  18    5.66   372.3   10.1      43.880
2014    9        8     4  23    5.67   372.4   10.1      43.950
2014    9        8     4  29    5.69   372.4   10.1      44.020
2014    9        8     4  35    5.70   372.5   10.1      44.090
2014    9        8     4  40    5.71   372.5   10.1      44.159
2014    9        8     4  46    5.72   372.5   10.2      44.227
2014    9        8     4  52    5.73   372.6   10.2      44.295
2014    9        8     4  57    5.75   372.6   10.2      44.364
2014    9        8     5   3    5.76   372.7   10.2      44.432
2014    9        8     5   8    5.77   372.7   10.2      44.501
2014    9        8     5  14    5.78   372.8   10.2      44.569
2014    9        8     5  20    5.79   372.8   10.2      44.638
2014    9        8     5  25    5.81   372.9   10.2      44.706
2014    9        8     5  31    5.82   372.9   10.3      44.774
2014    9        8     5  37    5.83   373.0   10.3      44.842
2014    9        8     5  42    5.84   373.0   10.3      44.909
2014    9        8     5  48    5.85   373.1   10.3      44.975
2014    9        8     5  53    5.86   373.1   10.3      45.041
2014    9        8     5  59    5.88   373.2   10.3      45.106
2014    9        8     6   5    5.89   373.2   10.3      45.171
2014    9        8     6  10    5.90   373.3   10.3      45.234
2014    9        8     6  16    5.91   373.3   10.3      45.297
2014    9        8     6  21    5.92   373.4   10.3      45.359
2014    9        8     6  27    5.93   373.5   10.4      45.420
2014    9        8     6  33    5.94   373.5   10.4      45.480
2014    9        8     6  38    5.95   373.6   10.4      45.540
2014    9        8     6  44    5.96   373.6   10.4      45.598
2014    9        8     6  50    5.97   373.7   10.4      45.656
2014    9        8     6  55    5.99   373.7   10.4      45.712
2014    9        8     7   1    6.00   373.8   10.4      45.768
2014    9        8     7   6    6.01   373.9   10.4      45.823
2014    9        8     7  12    6.02   373.9   10.4      45.877
2014    9        8     7  18    6.03   374.0   10.4      45.931
2014    9        8     7  23    6.04   374.0   10.4      45.983
2014    9        8     7  29    6.05   374.1   10.4      46.034
2014    9        8     7  35    6.06   374.2   10.4      46.085
2014    9        8     7  40    6.07   374.2   10.4      46.135
2014    9        8     7  46    6.08   374.3   10.4      46.184
2014    9        8     7  51    6.09   374.4   10.5      46.232
2014    9        8     7  57    6.10   374.4   10.5      46.279
2014    9        8     8   3    6.10   374.5   10.5      46.326
2014    9        8     8   8    6.11   374.6   10.5      46.371
2014    9        8     8  14    6.12   374.6   10.5      46.416
2014    9        8     8  19    6.13   374.7   10.5      46.461
2014    9        8     8  25    6.14   374.7   10.5      46.505
2014    9        8     8  31    6.15   374.8   10.5      46.547
2014    9        8     8  36    6.16   374.9   10.5      46.590
2014    9        8     8  42    6.17   374.9   10.5      46.632
2014    9        8     8  48    6.18   375.0   10.5      46.673
2014    9        8     8  53    6.19   375.1   10.5      46.713
2014    9        8     8  59    6.19   375.1   10.5      46.754
2014    9        8     9   4    6.20   375.2   10.5      46.794
2014    9        8     9  10    6.21   375.3   10.5      46.833
2014    9        8     9  16    6.22   375.3   10.5      46.872
2014    9        8     9  21    6.23   375.4   10.5      46.911
2014    9        8     9  27    6.24   375.5   10.5      46.949
2014    9        8     9  33    6.24   375.5   10.5      46.988
2014    9        8     9  38    6.25   375.6   10.5      47.026
2014    9        8     9  44    6.26   375.7   10.5      47.065
2014    9        8     9  49    6.27   375.7   10.5      47.103
2014    9        8     9  55    6.28   375.8   10.5      47.141
2014    9        8    10   1    6.29   375.9   10.5      47.180
2014    9        8    10   6    6.29   375.9   10.5      47.218
2014    9        8    10  12    6.30   376.0   10.6      47.258
2014    9        8    10  17    6.31   376.1   10.6      47.297
2014    9        8    10  23    6.32   376.1   10.6      47.338
2014    9        8    10  29    6.33   376.2   10.6      47.379
2014    9        8    10  34    6.33   376.2   10.6      47.420
2014    9        8    10  40    6.34   376.3   10.6      47.462
2014    9        8    10  46    6.35   376.4   10.6      47.505
2014    9        8    10  51    6.36   376.4   10.6      47.550
2014    9        8    10  57    6.37   376.5   10.6      47.597
2014    9        8    11   2    6.37   376.6   10.6      47.645
2014    9        8    11   8    6.38   376.6   10.6      47.694
2014    9        8    11  14    6.39   376.7   10.6      47.744
2014    9        8    11  19    6.40   376.8   10.6      47.794
2014    9        8    11  25    6.41   376.9   10.6      47.846
2014    9        8    11  31    6.41   377.0   10.6      47.899
2014    9        8    11  36    6.42   377.0   10.6      47.953
2014    9        8    11  42    6.43   377.1   10.7      48.009
2014    9        8    11  47    6.44   377.2   10.7      48.065
2014    9        8    11  53    6.44   377.3   10.7      48.123
2014    9        8    11  59    6.45   377.4   10.7      48.181
2014    9        8    12   4    6.46   377.6   10.7      48.241
2014    9        8    12  10    6.47   377.7   10.7      48.301
2014    9        8    12  15    6.47   377.8   10.7      48.362
2014    9        8    12  21    6.48   377.9   10.7      48.423
2014    9        8    12  27    6.49   378.1   10.7      48.483
2014    9        8    12  32    6.49   378.2   10.7      48.541
2014    9        8    12  38    6.50   378.3   10.7      48.599
2014    9        8    12  44    6.51   378.5   10.7      48.654
2014    9        8    12  49    6.51   378.6   10.7      48.709
2014    9        8    12  55    6.52   378.7   10.7      48.762
2014    9        8    13   0    6.52   378.9   10.7      48.814
2014    9        8    13   6    6.53   379.0   10.7      48.864
2014    9        8    13  12    6.53   379.1   10.7      48.913
2014    9        8    13  17    6.54   379.3   10.7      48.961
2014    9        8    13  23    6.54   379.4   10.7      49.008
2014    9        8    13  29    6.55   379.6   10.7      49.053
2014    9        8    13  34    6.55   379.7   10.7      49.097
2014    9        8    13  40    6.56   379.9   10.7      49.140
2014    9        8    13  45    6.56   380.0   10.7      49.182
2014    9        8    13  51    6.56   380.1   10.7      49.223
2014    9        8    13  57    6.57   380.3   10.7      49.263
2014    9        8    14   2    6.57   380.4   10.7      49.302
2014    9        8    14   8    6.58   380.6   10.7      49.340
2014    9        8    14  13    6.58   380.7   10.7      49.377
2014    9        8    14  19    6.58   380.9   10.7      49.414
2014    9        8    14  25    6.59   381.1   10.7      49.450
2014    9        8    14  30    6.59   381.2   10.7      49.484
2014    9        8    14  36    6.59   381.4   10.7      49.519
2014    9        8    14  42    6.60   381.5   10.7      49.552
2014    9        8    14  47    6.60   381.7   10.7      49.585
2014    9        8    14  53    6.60   381.8   10.7      49.617
2014    9        8    14  58    6.61   382.0   10.7      49.648
2014    9        8    15   4    6.61   382.2   10.7      49.679
2014    9        8    15  10    6.61   382.3   10.7      49.709
2014    9        8    15  15    6.61   382.5   10.7      49.738
2014    9        8    15  21    6.62   382.6   10.7      49.767
2014    9        8    15  27    6.62   382.8   10.7      49.795
2014    9        8    15  32    6.62   383.0   10.7      49.822
2014    9        8    15  38    6.62   383.1   10.7      49.849
2014    9        8    15  43    6.62   383.3   10.7      49.875
2014    9        8    15  49    6.63   383.5   10.7      49.901
2014    9        8    15  55    6.63   383.6   10.6      49.926
2014    9        8    16   0    6.63   383.8   10.6      49.950
2014    9        8    16   6    6.63   384.0   10.6      49.974
2014    9        8    16  11    6.63   384.1   10.6      49.997
2014    9        8    16  17    6.63   384.3   10.6      50.020
2014    9        8    16  23    6.64   384.5   10.6      50.042
2014    9        8    16  28    6.64   384.7   10.6      50.064
2014    9        8    16  34    6.64   384.8   10.6      50.085
2014    9        8    16  40    6.64   385.0   10.6      50.105
2014    9        8    16  45    6.64   385.2   10.6      50.125
2014    9        8    16  51    6.64   385.3   10.6      50.145
2014    9        8    16  56    6.64   385.5   10.6      50.164
2014    9        8    17   2    6.64   385.7   10.6      50.182
2014    9        8    17   8    6.64   385.9   10.6      50.200
2014    9        8    17  13    6.64   386.0   10.5      50.218
2014    9        8    17  19    6.65   386.2   10.5      50.235
2014    9        8    17  25    6.65   386.4   10.5      50.252
2014    9        8    17  30    6.65   386.5   10.5      50.269
2014    9        8    17  36    6.65   386.7   10.5      50.286
2014    9        8    17  41    6.65   386.9   10.5      50.302
2014    9        8    17  47    6.65   387.0   10.5      50.319
2014    9        8    17  53    6.65   387.2   10.5      50.335
2014    9        8    17  58    6.65   387.4   10.5      50.351
2014    9        8    18   4    6.65   387.6   10.5      50.367
2014    9        8    18   9    6.65   387.7   10.5      50.384
2014    9        8    18  15    6.65   387.9   10.5      50.400
2014    9        8    18  21    6.65   388.1   10.4      50.417
2014    9        8    18  26    6.65   388.3   10.4      50.434
2014    9        8    18  32    6.65   388.4   10.4      50.452
2014    9        8    18  38    6.65   388.6   10.4      50.470
2014    9        8    18  43    6.65   388.8   10.4      50.488
2014    9        8    18  49    6.65   388.9   10.4      50.506
2014    9        8    18  54    6.65   389.1   10.4      50.525
2014    9        8    19   0    6.65   389.3   10.4      50.546
2014    9        8    19   6    6.65   389.5   10.4      50.568
2014    9        8    19  11    6.65   389.7   10.4      50.591
2014    9        8    19  17    6.65   389.8   10.4      50.616
2014    9        8    19  23    6.66   390.0   10.4      50.644
2014    9        8    19  28    6.66   390.2   10.4      50.672
2014    9        8    19  34    6.66   390.4   10.4      50.703
2014    9        8    19  39    6.66   390.6   10.4      50.734
2014    9        8    19  45    6.66   390.8   10.3      50.767
2014    9        8    19  51    6.66   391.0   10.3      50.799
2014    9        8    19  56    6.66   391.2   10.3      50.831
2014    9        8    20   2    6.66   391.4   10.3      50.863
2014    9        8    20   8    6.66   391.6   10.3      50.895
2014    9        8    20  13    6.66   391.9   10.3      50.926
2014    9        8    20  19    6.66   392.1   10.3      50.957
2014    9        8    20  24    6.66   392.3   10.3      50.987
2014    9        8    20  30    6.65   392.5   10.3      51.017
2014    9        8    20  36    6.65   392.7   10.3      51.046
2014    9        8    20  41    6.65   392.9   10.3      51.074
2014    9        8    20  47    6.65   393.1   10.3      51.101
2014    9        8    20  52    6.65   393.3   10.3      51.128
2014    9        8    20  58    6.65   393.5   10.2      51.154
2014    9        8    21   4    6.65   393.8   10.2      51.180
2014    9        8    21   9    6.65   394.0   10.2      51.206
2014    9        8    21  15    6.65   394.2   10.2      51.230
2014    9        8    21  21    6.65   394.4   10.2      51.254
2014    9        8    21  26    6.65   394.6   10.2      51.278
2014    9        8    21  32    6.65   394.8   10.2      51.301
2014    9        8    21  37    6.64   395.0   10.2      51.324
2014    9        8    21  43    6.64   395.2   10.2      51.346
2014    9        8    21  49    6.64   395.5   10.2      51.367
2014    9        8    21  54    6.64   395.7   10.2      51.388
2014    9        8    22   0    6.64   395.9   10.1      51.408
2014    9        8    22   6    6.64   396.1   10.1      51.428
2014    9        8    22  11    6.64   396.3   10.1      51.447
2014    9        8    22  17    6.63   396.5   10.1      51.466
2014    9        8    22  22    6.63   396.7   10.1      51.484
2014    9        8    22  28    6.63   397.0   10.1      51.502
2014    9        8    22  34    6.63   397.2   10.1      51.520
2014    9        8    22  39    6.63   397.4   10.1      51.537
2014    9        8    22  45    6.63   397.6   10.0      51.554
2014    9        8    22  50    6.63   397.8   10.0      51.571
2014    9        8    22  56    6.62   398.0   10.0      51.588
2014    9        8    23   2    6.62   398.3   10.0      51.604
2014    9        8    23   7    6.62   398.5   10.0      51.620
2014    9        8    23  13    6.62   398.7   10.0      51.636
2014    9        8    23  19    6.62   398.9   10.0      51.651
2014    9        8    23  24    6.61   399.1   10.0      51.666
2014    9        8    23  30    6.61   399.4    9.9      51.680
2014    9        8    23  35    6.61   399.6    9.9      51.694
2014    9        8    23  41    6.61   399.8    9.9      51.708
2014    9        8    23  47    6.61   400.0    9.9      51.721
2014    9        8    23  52    6.60   400.3    9.9      51.733
2014    9        8    23  58    6.60   400.5    9.9      51.745
2014    9        9     0   4    6.60   400.7    9.9      51.757
2014    9        9     0   9    6.60   400.9    9.9      51.767
2014    9        9     0  15    6.60   401.2    9.8      51.778
2014    9        9     0  20    6.59   401.4    9.8      51.788
2014    9        9     0  26    6.59   401.6    9.8      51.798
2014    9        9     0  32    6.59   401.8    9.8      51.807
2014    9        9     0  37    6.59   402.1    9.8      51.816
2014    9        9     0  43    6.58   402.3    9.8      51.825
2014    9        9     0  48    6.58   402.5    9.8      51.834
2014    9        9     0  54    6.58   402.7    9.8      51.842
2014    9        9     1   0    6.58   403.0    9.7      51.850
2014    9        9     1   5    6.57   403.2    9.7      51.859
2014    9        9     1  11    6.57   403.4    9.7      51.867
2014    9        9     1  17    6.57   403.6    9.7      51.875
2014    9        9     1  22    6.57   403.9    9.7      51.883
2014    9        9     1  28    6.56   404.1    9.7      51.891
2014    9        9     1  33    6.56   404.3    9.7      51.900
2014    9        9     1  39    6.56   404.5    9.6      51.909
2014    9        9     1  45    6.55   404.8    9.6      51.917
2014    9        9     1  50    6.55   405.0    9.6      51.926
2014    9        9     1  56    6.55   405.2    9.6      51.934
2014    9        9     2   2    6.55   405.5    9.6      51.942
2014    9        9     2   7    6.54   405.7    9.6      51.951
2014    9        9     2  13    6.54   405.9    9.6      51.959
2014    9        9     2  18    6.54   406.2    9.5      51.965
2014    9        9     2  24    6.53   406.4    9.5      51.969
2014    9        9     2  30    6.53   406.7    9.5      51.971
2014    9        9     2  35    6.52   406.9    9.5      51.971
2014    9        9     2  41    6.52   407.2    9.5      51.970
2014    9        9     2  46    6.52   407.4    9.5      51.968
2014    9        9     2  52    6.51   407.6    9.4      51.963
2014    9        9     2  58    6.51   407.8    9.4      51.956
2014    9        9     3   3    6.50   408.0    9.4      51.949
2014    9        9     3   9    6.50   408.2    9.4      51.944
2014    9        9     3  15    6.50   408.4    9.4      51.938
2014    9        9     3  20    6.49   408.6    9.4      51.933
2014    9        9     3  26    6.49   408.8    9.4      51.929
2014    9        9     3  31    6.48   409.0    9.3      51.924
2014    9        9     3  37    6.48   409.2    9.3      51.920
2014    9        9     3  43    6.48   409.3    9.3      51.916
2014    9        9     3  48    6.47   409.5    9.3      51.914
2014    9        9     3  54    6.47   409.7    9.3      51.913
2014    9        9     4   0    6.47   409.8    9.3      51.913
2014    9        9     4   5    6.46   410.0    9.3      51.914
2014    9        9     4  11    6.46   410.2    9.3      51.915
2014    9        9     4  16    6.46   410.4    9.2      51.917
2014    9        9     4  22    6.45   410.5    9.2      51.922
2014    9        9     4  28    6.45   410.7    9.2      51.928
2014    9        9     4  33    6.45   410.9    9.2      51.935
2014    9        9     4  39    6.45   411.1    9.2      51.942
2014    9        9     4  44    6.44   411.3    9.2      51.950
2014    9        9     4  50    6.44   411.5    9.2      51.958
2014    9        9     4  56    6.44   411.7    9.2      51.966
2014    9        9     5   1    6.43   411.9    9.2      51.974
2014    9        9     5   7    6.43   412.1    9.1      51.982
2014    9        9     5  13    6.43   412.4    9.1      51.989
2014    9        9     5  18    6.42   412.6    9.1      51.994
2014    9        9     5  24    6.42   412.8    9.1      51.998
2014    9        9     5  29    6.42   412.9    9.1      52.001
2014    9        9     5  35    6.41   413.1    9.1      52.004
2014    9        9     5  41    6.41   413.3    9.1      52.005
2014    9        9     5  46    6.41   413.5    9.1      52.007
2014    9        9     5  52    6.40   413.7    9.1      52.008
2014    9        9     5  58    6.40   413.9    9.0      52.010
2014    9        9     6   3    6.40   414.1    9.0      52.011
2014    9        9     6   9    6.39   414.3    9.0      52.012
2014    9        9     6  14    6.39   414.5    9.0      52.013
2014    9        9     6  20    6.39   414.7    9.0      52.013
2014    9        9     6  26    6.38   414.9    9.0      52.014
2014    9        9     6  31    6.38   415.1    9.0      52.014
2014    9        9     6  37    6.37   415.3    8.9      52.013
2014    9        9     6  42    6.37   415.5    8.9      52.011
2014    9        9     6  48    6.37   415.7    8.9      52.009
2014    9        9     6  54    6.36   415.8    8.9      52.007
2014    9        9     6  59    6.36   416.0    8.9      52.003
2014    9        9     7   5    6.35   416.2    8.9      52.000
2014    9        9     7  11    6.35   416.4    8.9      51.995
2014    9        9     7  16    6.35   416.6    8.9      51.991
2014    9        9     7  22    6.34   416.8    8.8      51.986
2014    9        9     7  27    6.34   417.0    8.8      51.980
2014    9        9     7  33    6.33   417.1    8.8      51.975
2014    9        9     7  39    6.33   417.3    8.8      51.969
2014    9        9     7  44    6.33   417.5    8.8      51.963
2014    9        9     7  50    6.32   417.7    8.8      51.957
2014    9        9     7  56    6.32   417.9    8.8      51.950
2014    9        9     8   1    6.31   418.1    8.8      51.943
2014    9        9     8   7    6.31   418.3    8.7      51.935
2014    9        9     8  12    6.30   418.5    8.7      51.927
2014    9        9     8  18    6.30   418.6    8.7      51.917
2014    9        9     8  24    6.30   418.8    8.7      51.907
2014    9        9     8  29    6.29   419.0    8.7      51.897
2014    9        9     8  35    6.29   419.2    8.7      51.886
2014    9        9     8  40    6.28   419.4    8.7      51.875
2014    9        9     8  46    6.28   419.6    8.6      51.863
2014    9        9     8  52    6.27   419.7    8.6      51.851
2014    9        9     8  57    6.27   419.9    8.6      51.839
2014    9        9     9   3    6.26   420.1    8.6      51.827
2014    9        9     9   9    6.26   420.3    8.6      51.815
2014    9        9     9  14    6.25   420.5    8.6      51.804
2014    9        9     9  20    6.25   420.7    8.6      51.792
2014    9        9     9  25    6.24   420.9    8.6      51.780
2014    9        9     9  31    6.24   421.1    8.5      51.766
2014    9        9     9  37    6.23   421.3    8.5      51.751
2014    9        9     9  42    6.23   421.5    8.5      51.735
2014    9        9     9  48    6.22   421.7    8.5      51.717
2014    9        9     9  54    6.22   421.8    8.5      51.697
2014    9        9     9  59    6.21   422.0    8.5      51.676
2014    9        9    10   5    6.21   422.2    8.4      51.654
2014    9        9    10  10    6.20   422.3    8.4      51.630
2014    9        9    10  16    6.20   422.5    8.4      51.607
2014    9        9    10  22    6.19   422.6    8.4      51.583
2014    9        9    10  27    6.19   422.8    8.4      51.560
2014    9        9    10  33    6.18   422.9    8.4      51.536
2014    9        9    10  38    6.18   423.1    8.4      51.514
2014    9        9    10  44    6.17   423.2    8.4      51.491
2014    9        9    10  50    6.17   423.3    8.3      51.468
2014    9        9    10  55    6.16   423.4    8.3      51.445
2014    9        9    11   1    6.16   423.5    8.3      51.423
2014    9        9    11   7    6.15   423.7    8.3      51.401
2014    9        9    11  12    6.15   423.8    8.3      51.381
2014    9        9    11  18    6.14   423.9    8.3      51.362
2014    9        9    11  23    6.14   424.0    8.3      51.346
2014    9        9    11  29    6.14   424.2    8.3      51.330
2014    9        9    11  35    6.13   424.3    8.3      51.316
2014    9        9    11  40    6.13   424.5    8.2      51.304
2014    9        9    11  46    6.12   424.6    8.2      51.292
2014    9        9    11  52    6.12   424.8    8.2      51.282
2014    9        9    11  57    6.12   424.9    8.2      51.272
2014    9        9    12   3    6.11   425.1    8.2      51.263
2014    9        9    12   8    6.11   425.2    8.2      51.253
2014    9        9    12  14    6.11   425.3    8.2      51.242
2014    9        9    12  20    6.10   425.5    8.2      51.231
2014    9        9    12  25    6.10   425.6    8.2      51.220
2014    9        9    12  31    6.09   425.7    8.2      51.210
2014    9        9    12  37    6.09   425.8    8.2      51.200
2014    9        9    12  42    6.09   426.0    8.1      51.191
2014    9        9    12  48    6.08   426.1    8.1      51.181
2014    9        9    12  53    6.08   426.2    8.1      51.172
2014    9        9    12  59    6.07   426.4    8.1      51.163
2014    9        9    13   5    6.07   426.5    8.1      51.155
2014    9        9    13  10    6.07   426.6    8.1      51.146
2014    9        9    13  16    6.06   426.8    8.1      51.137
2014    9        9    13  21    6.06   426.9    8.1      51.128
2014    9        9    13  27    6.05   427.0    8.1      51.118
2014    9        9    13  33    6.05   427.1    8.1      51.107
2014    9        9    13  38    6.04   427.3    8.1      51.096
2014    9        9    13  44    6.04   427.4    8.0      51.084
2014    9        9    13  50    6.04   427.5    8.0      51.073
2014    9        9    13  55    6.03   427.6    8.0      51.061
2014    9        9    14   1    6.03   427.7    8.0      51.049
2014    9        9    14   6    6.02   427.8    8.0      51.037
2014    9        9    14  12    6.02   427.9    8.0      51.025
2014    9        9    14  18    6.02   428.0    8.0      51.014
2014    9        9    14  23    6.01   428.1    8.0      51.003
2014    9        9    14  29    6.01   428.3    8.0      50.992
2014    9        9    14  35    6.00   428.4    8.0      50.982
2014    9        9    14  40    6.00   428.5    8.0      50.972
2014    9        9    14  46    6.00   428.6    8.0      50.961
2014    9        9    14  51    5.99   428.7    7.9      50.951
2014    9        9    14  57    5.99   428.9    7.9      50.940
2014    9        9    15   3    5.98   429.0    7.9      50.928
2014    9        9    15   8    5.98   429.1    7.9      50.916
2014    9        9    15  14    5.98   429.2    7.9      50.904
2014    9        9    15  19    5.97   429.4    7.9      50.891
2014    9        9    15  25    5.97   429.5    7.9      50.877
2014    9        9    15  31    5.97   429.6    7.9      50.863
2014    9        9    15  36    5.96   429.7    7.9      50.848
2014    9        9    15  42    5.96   429.8    7.9      50.834
2014    9        9    15  48    5.95   429.9    7.9      50.818
2014    9        9    15  53    5.95   430.1    7.9      50.803
2014    9        9    15  59    5.95   430.2    7.8      50.787
2014    9        9    16   4    5.94   430.3    7.8      50.771
2014    9        9    16  10    5.94   430.4    7.8      50.755
2014    9        9    16  16    5.93   430.5    7.8      50.739
2014    9        9    16  21    5.93   430.6    7.8      50.722
2014    9        9    16  27    5.93   430.7    7.8      50.705
2014    9        9    16  33    5.92   430.8    7.8      50.688
2014    9        9    16  38    5.92   430.9    7.8      50.671
2014    9        9    16  44    5.91   431.0    7.8      50.654
2014    9        9    16  49    5.91   431.1    7.8      50.636
2014    9        9    16  55    5.91   431.3    7.8      50.618
2014    9        9    17   1    5.90   431.4    7.8      50.601
2014    9        9    17   6    5.90   431.5    7.7      50.583
2014    9        9    17  12    5.89   431.6    7.7      50.565
2014    9        9    17  17    5.89   431.7    7.7      50.547
2014    9        9    17  23    5.89   431.7    7.7      50.530
2014    9        9    17  29    5.88   431.8    7.7      50.512
2014    9        9    17  34    5.88   431.9    7.7      50.495
2014    9        9    17  40    5.88   432.0    7.7      50.477
2014    9        9    17  46    5.87   432.1    7.7      50.460
2014    9        9    17  51    5.87   432.2    7.7      50.444
2014    9        9    17  57    5.87   432.3    7.7      50.427
2014    9        9    18   2    5.86   432.4    7.7      50.411
2014    9        9    18   8    5.86   432.5    7.7      50.396
2014    9        9    18  14    5.86   432.5    7.7      50.381
2014    9        9    18  19    5.85   432.6    7.7      50.367
2014    9        9    18  25    5.85   432.7    7.6      50.354
2014    9        9    18  31    5.85   432.8    7.6      50.341
2014    9        9    18  36    5.84   432.9    7.6      50.329
2014    9        9    18  42    5.84   433.0    7.6      50.318
2014    9        9    18  47    5.84   433.0    7.6      50.308
2014    9        9    18  53    5.83   433.1    7.6      50.298
2014    9        9    18  59    5.83   433.2    7.6      50.289
2014    9        9    19   4    5.83   433.3    7.6      50.281
2014    9        9    19  10    5.82   433.3    7.6      50.274
2014    9        9    19  15    5.82   433.4    7.6      50.268
2014    9        9    19  21    5.82   433.5    7.6      50.262
2014    9        9    19  27    5.82   433.6    7.6      50.258
2014    9        9    19  32    5.81   433.6    7.6      50.253
2014    9        9    19  38    5.81   433.7    7.6      50.249
2014    9        9    19  44    5.81   433.8    7.6      50.246
2014    9        9    19  49    5.80   433.9    7.6      50.243
2014    9        9    19  55    5.80   433.9    7.6      50.240
2014    9        9    20   0    5.80   434.0    7.6      50.237
2014    9        9    20   6    5.80   434.1    7.6      50.233
2014    9        9    20  12    5.79   434.2    7.6      50.230
2014    9        9    20  17    5.79   434.2    7.6      50.227
2014    9        9    20  23    5.79   434.3    7.6      50.223
2014    9        9    20  29    5.79   434.4    7.6      50.220
2014    9        9    20  34    5.78   434.4    7.5      50.216
2014    9        9    20  40    5.78   434.5    7.5      50.212
2014    9        9    20  45    5.78   434.6    7.5      50.208
2014    9        9    20  51    5.78   434.7    7.5      50.205
2014    9        9    20  57    5.77   434.7    7.5      50.200
2014    9        9    21   2    5.77   434.8    7.5      50.197
2014    9        9    21   8    5.77   434.9    7.5      50.192
2014    9        9    21  13    5.77   434.9    7.5      50.188
2014    9        9    21  19    5.76   435.0    7.5      50.184
2014    9        9    21  25    5.76   435.1    7.5      50.179
2014    9        9    21  30    5.76   435.2    7.5      50.175
2014    9        9    21  36    5.76   435.2    7.5      50.171
2014    9        9    21  42    5.76   435.3    7.5      50.166
2014    9        9    21  47    5.75   435.4    7.5      50.162
2014    9        9    21  53    5.75   435.4    7.5      50.157
2014    9        9    21  58    5.75   435.5    7.5      50.153
2014    9        9    22   4    5.75   435.6    7.5      50.148
2014    9        9    22  10    5.75   435.6    7.5      50.143
2014    9        9    22  15    5.74   435.7    7.5      50.138
2014    9        9    22  21    5.74   435.8    7.5      50.134
2014    9        9    22  27    5.74   435.8    7.5      50.129
2014    9        9    22  32    5.74   435.9    7.5      50.124
2014    9        9    22  38    5.74   436.0    7.5      50.119
2014    9        9    22  43    5.73   436.0    7.5      50.114
2014    9        9    22  49    5.73   436.1    7.5      50.110
2014    9        9    22  55    5.73   436.2    7.5      50.105
2014    9        9    23   0    5.73   436.2    7.4      50.100
2014    9        9    23   6    5.73   436.3    7.4      50.096
2014    9        9    23  12    5.72   436.4    7.4      50.091
2014    9        9    23  17    5.72   436.4    7.4      50.087
2014    9        9    23  23    5.72   436.5    7.4      50.083
2014    9        9    23  28    5.72   436.6    7.4      50.078
2014    9        9    23  34    5.72   436.6    7.4      50.074
2014    9        9    23  40    5.71   436.7    7.4      50.071
2014    9        9    23  45    5.71   436.8    7.4      50.067
2014    9        9    23  51    5.71   436.8    7.4      50.063
2014    9        9    23  56    5.71   436.9    7.4      50.060
2014    9       10     0   2    5.71   437.0    7.4      50.056
2014    9       10     0   8    5.71   437.0    7.4      50.053
2014    9       10     0  13    5.70   437.1    7.4      50.050
2014    9       10     0  19    5.70   437.2    7.4      50.048
2014    9       10     0  25    5.70   437.2    7.4      50.045
2014    9       10     0  30    5.70   437.3    7.4      50.042
2014    9       10     0  36    5.70   437.4    7.4      50.040
2014    9       10     0  41    5.70   437.4    7.4      50.038
2014    9       10     0  47    5.69   437.5    7.4      50.036
2014    9       10     0  53    5.69   437.6    7.4      50.034
2014    9       10     0  58    5.69   437.6    7.4      50.032
2014    9       10     1   4    5.69   437.7    7.4      50.031
2014    9       10     1  10    5.69   437.7    7.4      50.029
2014    9       10     1  15    5.69   437.8    7.4      50.028
2014    9       10     1  21    5.68   437.9    7.4      50.027
2014    9       10     1  26    5.68   437.9    7.4      50.027
2014    9       10     1  32    5.68   438.0    7.4      50.026
2014    9       10     1  38    5.68   438.0    7.4      50.026
2014    9       10     1  43    5.68   438.1    7.4      50.026
2014    9       10     1  49    5.68   438.2    7.4      50.026
2014    9       10     1  54    5.68   438.2    7.4      50.027
2014    9       10     2   0    5.67   438.3    7.4      50.028
2014    9       10     2   6    5.67   438.3    7.4      50.029
2014    9       10     2  11    5.67   438.4    7.4      50.031
2014    9       10     2  17    5.67   438.5    7.3      50.033
2014    9       10     2  23    5.67   438.5    7.3      50.035
2014    9       10     2  28    5.67   438.6    7.3      50.037
2014    9       10     2  34    5.67   438.6    7.3      50.040
2014    9       10     2  39    5.66   438.7    7.3      50.043
2014    9       10     2  45    5.66   438.8    7.3      50.045
2014    9       10     2  51    5.66   438.8    7.3      50.049
2014    9       10     2  56    5.66   438.9    7.3      50.052
2014    9       10     3   2    5.66   438.9    7.3      50.055
2014    9       10     3   8    5.66   439.0    7.3      50.059
2014    9       10     3  13    5.66   439.0    7.3      50.063
2014    9       10     3  19    5.66   439.1    7.3      50.067
2014    9       10     3  24    5.66   439.2    7.3      50.071
2014    9       10     3  30    5.66   439.2    7.3      50.075
2014    9       10     3  36    5.65   439.3    7.3      50.080
2014    9       10     3  41    5.65   439.3    7.3      50.084
2014    9       10     3  47    5.65   439.4    7.3      50.088
2014    9       10     3  52    5.65   439.5    7.3      50.093
2014    9       10     3  58    5.65   439.5    7.3      50.098
2014    9       10     4   4    5.65   439.6    7.3      50.102
2014    9       10     4   9    5.65   439.6    7.3      50.107
2014    9       10     4  15    5.65   439.7    7.3      50.112
2014    9       10     4  21    5.65   439.8    7.3      50.116
2014    9       10     4  26    5.65   439.8    7.3      50.121
2014    9       10     4  32    5.65   439.9    7.3      50.126
2014    9       10     4  37    5.65   439.9    7.3      50.131
2014    9       10     4  43    5.64   440.0    7.3      50.136
2014    9       10     4  49    5.64   440.1    7.3      50.141
2014    9       10     4  54    5.64   440.1    7.3      50.145
2014    9       10     5   0    5.64   440.2    7.3      50.150
2014    9       10     5   6    5.64   440.2    7.3      50.155
2014    9       10     5  11    5.64   440.3    7.3      50.160
2014    9       10     5  17    5.64   440.4    7.3      50.165
2014    9       10     5  22    5.64   440.4    7.3      50.170
2014    9       10     5  28    5.64   440.5    7.3      50.175
2014    9       10     5  34    5.64   440.5    7.3      50.180
2014    9       10     5  39    5.64   440.6    7.3      50.184
2014    9       10     5  45    5.64   440.7    7.3      50.189
2014    9       10     5  51    5.64   440.7    7.3      50.194
2014    9       10     5  56    5.64   440.8    7.3      50.199
2014    9       10     6   2    5.63   440.9    7.3      50.204
2014    9       10     6   7    5.63   440.9    7.3      50.209
2014    9       10     6  13    5.63   441.0    7.3      50.214
2014    9       10     6  19    5.63   441.0    7.3      50.219
2014    9       10     6  24    5.63   441.1    7.3      50.225
2014    9       10     6  30    5.63   441.2    7.3      50.230
2014    9       10     6  35    5.63   441.2    7.3      50.235
2014    9       10     6  41    5.63   441.3    7.3      50.241
2014    9       10     6  47    5.63   441.4    7.3      50.246
2014    9       10     6  52    5.63   441.4    7.3      50.252
2014    9       10     6  58    5.63   441.5    7.3      50.257
2014    9       10     7   4    5.63   441.5    7.3      50.263
2014    9       10     7   9    5.63   441.6    7.3      50.269
2014    9       10     7  15    5.63   441.7    7.3      50.274
2014    9       10     7  20    5.63   441.7    7.3      50.280
2014    9       10     7  26    5.63   441.8    7.3      50.286
2014    9       10     7  32    5.63   441.9    7.3      50.292
2014    9       10     7  37    5.63   441.9    7.2      50.299
2014    9       10     7  43    5.62   442.0    7.2      50.305
2014    9       10     7  49    5.62   442.1    7.2      50.312
2014    9       10     7  54    5.62   442.1    7.2      50.318
2014    9       10     8   0    5.62   442.2    7.2      50.325
2014    9       10     8   5    5.62   442.2    7.2      50.332
2014    9       10     8  11    5.62   442.3    7.2      50.339
2014    9       10     8  17    5.62   442.4    7.2      50.346
2014    9       10     8  22    5.62   442.4    7.2      50.354
2014    9       10     8  28    5.62   442.5    7.2      50.361
2014    9       10     8  33    5.62   442.6    7.2      50.370
2014    9       10     8  39    5.62   442.6    7.2      50.378
2014    9       10     8  45    5.62   442.7    7.2      50.386
2014    9       10     8  50    5.62   442.7    7.2      50.395
2014    9       10     8  56    5.62   442.8    7.2      50.404
2014    9       10     9   2    5.62   442.9    7.2      50.414
2014    9       10     9   7    5.62   442.9    7.2      50.424
2014    9       10     9  13    5.62   443.0    7.2      50.434
2014    9       10     9  18    5.62   443.1    7.2      50.444
2014    9       10     9  24    5.62   443.1    7.2      50.455
2014    9       10     9  30    5.62   443.2    7.2      50.465
2014    9       10     9  35    5.62   443.3    7.2      50.476
2014    9       10     9  41    5.62   443.3    7.2      50.487
2014    9       10     9  47    5.62   443.4    7.2      50.498
2014    9       10     9  52    5.62   443.4    7.2      50.510
2014    9       10     9  58    5.62   443.5    7.2      50.521
2014    9       10    10   3    5.62   443.6    7.2      50.533
2014    9       10    10   9    5.62   443.6    7.2      50.544
2014    9       10    10  15    5.62   443.7    7.2      50.556
2014    9       10    10  20    5.62   443.8    7.2      50.568
2014    9       10    10  26    5.62   443.8    7.2      50.580
2014    9       10    10  31    5.61   443.9    7.2      50.592
2014    9       10    10  37    5.61   444.0    7.2      50.604
2014    9       10    10  43    5.61   444.0    7.2      50.617
2014    9       10    10  48    5.61   444.1    7.2      50.629
2014    9       10    10  54    5.61   444.2    7.2      50.641
2014    9       10    11   0    5.61   444.2    7.2      50.654
2014    9       10    11   5    5.61   444.3    7.2      50.666
2014    9       10    11  11    5.61   444.3    7.2      50.679
2014    9       10    11  16    5.61   444.4    7.2      50.692
2014    9       10    11  22    5.61   444.5    7.2      50.705
2014    9       10    11  28    5.61   444.5    7.2      50.718
2014    9       10    11  33    5.61   444.6    7.2      50.731
2014    9       10    11  39    5.61   444.7    7.2      50.744
2014    9       10    11  45    5.61   444.7    7.2      50.757
2014    9       10    11  50    5.61   444.8    7.2      50.770
2014    9       10    11  56    5.61   444.9    7.2      50.784
2014    9       10    12   1    5.61   444.9    7.2      50.797
2014    9       10    12   7    5.61   445.0    7.2      50.811
2014    9       10    12  13    5.61   445.1    7.2      50.825
2014    9       10    12  18    5.61   445.2    7.2      50.838
2014    9       10    12  24    5.61   445.2    7.2      50.852
2014    9       10    12  29    5.61   445.3    7.2      50.866
2014    9       10    12  35    5.61   445.4    7.2      50.880
2014    9       10    12  41    5.61   445.4    7.2      50.894
2014    9       10    12  46    5.61   445.5    7.2      50.909
2014    9       10    12  52    5.61   445.6    7.2      50.923
2014    9       10    12  58    5.61   445.6    7.2      50.938
2014    9       10    13   3    5.61   445.7    7.2      50.952
2014    9       10    13   9    5.61   445.8    7.2      50.967
2014    9       10    13  14    5.61   445.9    7.2      50.982
2014    9       10    13  20    5.61   445.9    7.2      50.997
2014    9       10    13  26    5.61   446.0    7.2      51.013
2014    9       10    13  31    5.61   446.1    7.2      51.028
2014    9       10    13  37    5.61   446.2    7.2      51.044
2014    9       10    13  43    5.61   446.2    7.2      51.059
2014    9       10    13  48    5.61   446.3    7.2      51.076
2014    9       10    13  54    5.61   446.4    7.2      51.093
2014    9       10    13  59    5.61   446.5    7.2      51.111
2014    9       10    14   5    5.61   446.5    7.2      51.130
2014    9       10    14  11    5.61   446.6    7.2      51.148
2014    9       10    14  16    5.61   446.7    7.2      51.168
2014    9       10    14  22    5.61   446.8    7.2      51.188
2014    9       10    14  27    5.61   446.9    7.2      51.207
2014    9       10    14  33    5.61   446.9    7.2      51.226
2014    9       10    14  39    5.61   447.0    7.2      51.245
2014    9       10    14  44    5.61   447.1    7.2      51.264
2014    9       10    14  50    5.61   447.2    7.2      51.282
2014    9       10    14  56    5.61   447.3    7.2      51.301
2014    9       10    15   1    5.61   447.4    7.2      51.319
2014    9       10    15   7    5.61   447.4    7.2      51.337
2014    9       10    15  12    5.61   447.5    7.2      51.354
2014    9       10    15  18    5.61   447.6    7.2      51.372
2014    9       10    15  24    5.61   447.7    7.2      51.389
2014    9       10    15  29    5.61   447.8    7.2      51.406
2014    9       10    15  35    5.61   447.9    7.2      51.422
2014    9       10    15  41    5.61   447.9    7.2      51.439
2014    9       10    15  46    5.61   448.0    7.2      51.456
2014    9       10    15  52    5.61   448.1    7.2      51.472
2014    9       10    15  57    5.61   448.2    7.2      51.488
2014    9       10    16   3    5.61   448.3    7.2      51.504
2014    9       10    16   9    5.61   448.3    7.2      51.520
2014    9       10    16  14    5.61   448.4    7.2      51.536
2014    9       10    16  20    5.61   448.5    7.2      51.552
2014    9       10    16  25    5.61   448.6    7.2      51.568
2014    9       10    16  31    5.61   448.7    7.2      51.583
2014    9       10    16  37    5.61   448.8    7.2      51.599
2014    9       10    16  42    5.61   448.8    7.2      51.615
2014    9       10    16  48    5.61   448.9    7.2      51.630
2014    9       10    16  54    5.61   449.0    7.2      51.647
2014    9       10    16  59    5.61   449.1    7.2      51.663
2014    9       10    17   5    5.61   449.2    7.2      51.679
2014    9       10    17  10    5.61   449.3    7.2      51.696
2014    9       10    17  16    5.61   449.3    7.2      51.714
2014    9       10    17  22    5.61   449.4    7.2      51.731
2014    9       10    17  27    5.61   449.5    7.2      51.749
2014    9       10    17  33    5.61   449.6    7.2      51.767
2014    9       10    17  39    5.61   449.7    7.2      51.784
2014    9       10    17  44    5.61   449.8    7.2      51.802
2014    9       10    17  50    5.61   449.9    7.2      51.820
2014    9       10    17  55    5.61   449.9    7.2      51.837
2014    9       10    18   1    5.61   450.0    7.2      51.855
2014    9       10    18   7    5.61   450.1    7.2      51.873
2014    9       10    18  12    5.61   450.2    7.2      51.891
2014    9       10    18  18    5.61   450.3    7.2      51.909
2014    9       10    18  24    5.61   450.4    7.2      51.927
2014    9       10    18  29    5.61   450.5    7.2      51.946
2014    9       10    18  35    5.61   450.6    7.2      51.964
2014    9       10    18  40    5.61   450.7    7.2      51.982
2014    9       10    18  46    5.61   450.8    7.2      52.000
2014    9       10    18  52    5.61   450.9    7.2      52.018
2014    9       10    18  57    5.61   450.9    7.2      52.036
2014    9       10    19   3    5.61   451.0    7.2      52.053
2014    9       10    19   8    5.61   451.1    7.2      52.070
2014    9       10    19  14    5.61   451.2    7.2      52.087
2014    9       10    19  20    5.61   451.3    7.1      52.103
2014    9       10    19  25    5.61   451.4    7.1      52.120
2014    9       10    19  31    5.61   451.5    7.1      52.136
2014    9       10    19  37    5.61   451.6    7.1      52.151
2014    9       10    19  42    5.61   451.7    7.1      52.167
2014    9       10    19  48    5.61   451.8    7.1      52.182
2014    9       10    19  53    5.61   451.9    7.1      52.197
2014    9       10    19  59    5.61   451.9    7.1      52.212
2014    9       10    20   5    5.61   452.0    7.1      52.227
2014    9       10    20  10    5.61   452.1    7.1      52.242
2014    9       10    20  16    5.61   452.2    7.1      52.257
2014    9       10    20  22    5.61   452.3    7.1      52.271
2014    9       10    20  27    5.61   452.4    7.1      52.286
2014    9       10    20  33    5.61   452.5    7.1      52.300
2014    9       10    20  38    5.61   452.6    7.1      52.315
2014    9       10    20  44    5.61   452.7    7.1      52.329
2014    9       10    20  50    5.61   452.8    7.1      52.344
2014    9       10    20  55    5.61   452.8    7.1      52.359
2014    9       10    21   1    5.61   452.9    7.1      52.373
2014    9       10    21   6    5.61   453.0    7.1      52.388
2014    9       10    21  12    5.61   453.1    7.1      52.403
2014    9       10    21  18    5.61   453.2    7.1      52.418
2014    9       10    21  23    5.60   453.3    7.1      52.434
2014    9       10    21  29    5.60   453.4    7.1      52.450
2014    9       10    21  35    5.60   453.5    7.1      52.467
2014    9       10    21  40    5.60   453.6    7.1      52.485
2014    9       10    21  46    5.60   453.7    7.1      52.503
2014    9       10    21  51    5.60   453.8    7.1      52.522
2014    9       10    21  57    5.60   453.9    7.1      52.540
2014    9       10    22   3    5.60   454.0    7.1      52.559
2014    9       10    22   8    5.60   454.1    7.1      52.577
2014    9       10    22  14    5.60   454.2    7.1      52.595
2014    9       10    22  20    5.60   454.3    7.1      52.613
2014    9       10    22  25    5.60   454.4    7.1      52.630
2014    9       10    22  31    5.60   454.5    7.1      52.648
2014    9       10    22  36    5.60   454.6    7.1      52.665
2014    9       10    22  42    5.60   454.7    7.1      52.682
2014    9       10    22  48    5.60   454.8    7.1      52.698
2014    9       10    22  53    5.60   454.9    7.1      52.715
2014    9       10    22  59    5.60   455.0    7.1      52.731
2014    9       10    23   4    5.60   455.1    7.1      52.746
2014    9       10    23  10    5.60   455.2    7.1      52.762
2014    9       10    23  16    5.60   455.3    7.1      52.777
2014    9       10    23  21    5.60   455.4    7.1      52.792
2014    9       10    23  27    5.60   455.5    7.1      52.807
2014    9       10    23  33    5.60   455.6    7.1      52.822
2014    9       10    23  38    5.60   455.7    7.1      52.837
2014    9       10    23  44    5.59   455.8    7.1      52.851
2014    9       10    23  49    5.59   455.9    7.1      52.866
2014    9       10    23  55    5.59   456.0    7.1      52.880
2014    9       11     0   1    5.59   456.1    7.1      52.895
2014    9       11     0   6    5.59   456.2    7.1      52.910
2014    9       11     0  12    5.59   456.3    7.1      52.925
2014    9       11     0  18    5.59   456.4    7.1      52.941
2014    9       11     0  23    5.59   456.5    7.1      52.957
2014    9       11     0  29    5.59   456.6    7.1      52.974
2014    9       11     0  34    5.59   456.7    7.1      52.991
2014    9       11     0  40    5.59   456.8    7.1      53.008
2014    9       11     0  46    5.59   456.9    7.0      53.025
2014    9       11     0  51    5.59   457.0    7.0      53.042
2014    9       11     0  57    5.59   457.1    7.0      53.059
2014    9       11     1   2    5.59   457.2    7.0      53.075
2014    9       11     1   8    5.59   457.3    7.0      53.091
2014    9       11     1  14    5.59   457.4    7.0      53.107
2014    9       11     1  19    5.59   457.5    7.0      53.122
2014    9       11     1  25    5.59   457.6    7.0      53.137
2014    9       11     1  31    5.58   457.7    7.0      53.151
2014    9       11     1  36    5.58   457.8    7.0      53.166
2014    9       11     1  42    5.58   457.9    7.0      53.180
2014    9       11     1  47    5.58   458.1    7.0      53.194
2014    9       11     1  53    5.58   458.2    7.0      53.208
2014    9       11     1  59    5.58   458.3    7.0      53.221
2014    9       11     2   4    5.58   458.4    7.0      53.235
2014    9       11     2  10    5.58   458.5    7.0      53.248
2014    9       11     2  16    5.58   458.6    7.0      53.262
2014    9       11     2  21    5.58   458.7    7.0      53.275
2014    9       11     2  27    5.58   458.8    7.0      53.288
2014    9       11     2  32    5.58   458.9    7.0      53.301
2014    9       11     2  38    5.58   459.0    7.0      53.313
2014    9       11     2  44    5.57   459.1    7.0      53.325
2014    9       11     2  49    5.57   459.2    7.0      53.336
2014    9       11     2  55    5.57   459.3    7.0      53.348
2014    9       11     3   0    5.57   459.4    7.0      53.358
2014    9       11     3   6    5.57   459.5    7.0      53.369
2014    9       11     3  12    5.57   459.6    7.0      53.379
2014    9       11     3  17    5.57   459.7    7.0      53.389
2014    9       11     3  23    5.57   459.8    7.0      53.399
2014    9       11     3  29    5.57   459.9    7.0      53.408
2014    9       11     3  34    5.57   460.1    7.0      53.418
2014    9       11     3  40    5.57   460.2    7.0      53.427
2014    9       11     3  45    5.56   460.3    7.0      53.435
2014    9       11     3  51    5.56   460.4    7.0      53.444
2014    9       11     3  57    5.56   460.5    6.9      53.453
2014    9       11     4   2    5.56   460.6    6.9      53.461
2014    9       11     4   8    5.56   460.7    6.9      53.469
2014    9       11     4  14    5.56   460.8    6.9      53.477
2014    9       11     4  19    5.56   460.9    6.9      53.486
2014    9       11     4  25    5.56   461.0    6.9      53.494
2014    9       11     4  30    5.56   461.1    6.9      53.502
2014    9       11     4  36    5.56   461.2    6.9      53.511
2014    9       11     4  42    5.55   461.3    6.9      53.519
2014    9       11     4  47    5.55   461.4    6.9      53.527
2014    9       11     4  53    5.55   461.5    6.9      53.536
2014    9       11     4  59    5.55   461.6    6.9      53.544
2014    9       11     5   4    5.55   461.7    6.9      53.551
2014    9       11     5  10    5.55   461.8    6.9      53.558
2014    9       11     5  15    5.55   461.9    6.9      53.565
2014    9       11     5  21    5.55   462.0    6.9      53.571
2014    9       11     5  27    5.54   462.1    6.9      53.577
2014    9       11     5  32    5.54   462.2    6.9      53.582
2014    9       11     5  38    5.54   462.3    6.9      53.587
2014    9       11     5  43    5.54   462.4    6.9      53.592
2014    9       11     5  49    5.54   462.5    6.9      53.596
2014    9       11     5  55    5.54   462.6    6.9      53.600
2014    9       11     6   0    5.54   462.7    6.9      53.604
2014    9       11     6   6    5.54   462.8    6.9      53.608
2014    9       11     6  12    5.53   462.9    6.9      53.611
2014    9       11     6  17    5.53   463.0    6.9      53.614
2014    9       11     6  23    5.53   463.1    6.8      53.616
2014    9       11     6  28    5.53   463.2    6.8      53.619
2014    9       11     6  34    5.53   463.3    6.8      53.621
2014    9       11     6  40    5.53   463.4    6.8      53.623
2014    9       11     6  45    5.53   463.5    6.8      53.625
2014    9       11     6  51    5.52   463.5    6.8      53.627
2014    9       11     6  57    5.52   463.6    6.8      53.628
2014    9       11     7   2    5.52   463.7    6.8      53.629
2014    9       11     7   8    5.52   463.8    6.8      53.631
2014    9       11     7  13    5.52   463.9    6.8      53.632
2014    9       11     7  19    5.52   464.0    6.8      53.633
2014    9       11     7  25    5.52   464.1    6.8      53.635
2014    9       11     7  30    5.51   464.2    6.8      53.636
2014    9       11     7  36    5.51   464.3    6.8      53.638
2014    9       11     7  41    5.51   464.4    6.8      53.640
2014    9       11     7  47    5.51   464.5    6.8      53.642
2014    9       11     7  53    5.51   464.5    6.8      53.646
2014    9       11     7  58    5.51   464.6    6.8      53.649
2014    9       11     8   4    5.51   464.7    6.8      53.654
2014    9       11     8  10    5.51   464.8    6.8      53.659
2014    9       11     8  15    5.50   464.9    6.8      53.665
2014    9       11     8  21    5.50   465.0    6.8      53.670
2014    9       11     8  26    5.50   465.1    6.8      53.676
2014    9       11     8  32    5.50   465.2    6.8      53.681
2014    9       11     8  38    5.50   465.3    6.8      53.687
2014    9       11     8  43    5.50   465.4    6.8      53.692
2014    9       11     8  49    5.50   465.5    6.7      53.697
2014    9       11     8  55    5.49   465.6    6.7      53.702
2014    9       11     9   0    5.49   465.7    6.7      53.707
2014    9       11     9   6    5.49   465.8    6.7      53.711
2014    9       11     9  11    5.49   465.9    6.7      53.716
2014    9       11     9  17    5.49   466.0    6.7      53.720
2014    9       11     9  23    5.49   466.1    6.7      53.724
2014    9       11     9  28    5.49   466.2    6.7      53.728
2014    9       11     9  34    5.48   466.2    6.7      53.732
2014    9       11     9  39    5.48   466.3    6.7      53.736
2014    9       11     9  45    5.48   466.4    6.7      53.740
2014    9       11     9  51    5.48   466.5    6.7      53.745
2014    9       11     9  56    5.48   466.6    6.7      53.749
2014    9       11    10   2    5.48   466.7    6.7      53.753
2014    9       11    10   8    5.48   466.8    6.7      53.757
2014    9       11    10  13    5.48   466.9    6.7      53.761
2014    9       11    10  19    5.47   467.0    6.7      53.764
2014    9       11    10  24    5.47   467.1    6.7      53.768
2014    9       11    10  30    5.47   467.2    6.7      53.770
2014    9       11    10  36    5.47   467.2    6.7      53.773
2014    9       11    10  41    5.47   467.3    6.7      53.775
2014    9       11    10  47    5.47   467.4    6.7      53.777
2014    9       11    10  53    5.46   467.5    6.7      53.778
2014    9       11    10  58    5.46   467.6    6.7      53.779
2014    9       11    11   4    5.46   467.7    6.7      53.780
2014    9       11    11   9    5.46   467.8    6.7      53.781
2014    9       11    11  15    5.46   467.8    6.7      53.781
2014    9       11    11  21    5.46   467.9    6.7      53.781
2014    9       11    11  26    5.46   468.0    6.7      53.780
2014    9       11    11  32    5.45   468.1    6.6      53.780
2014    9       11    11  37    5.45   468.2    6.6      53.779
2014    9       11    11  43    5.45   468.3    6.6      53.778
2014    9       11    11  49    5.45   468.3    6.6      53.776
2014    9       11    11  54    5.45   468.4    6.6      53.775
2014    9       11    12   0    5.45   468.5    6.6      53.773
2014    9       11    12   6    5.45   468.6    6.6      53.771
2014    9       11    12  11    5.44   468.7    6.6      53.769
2014    9       11    12  17    5.44   468.7    6.6      53.767
2014    9       11    12  22    5.44   468.8    6.6      53.765
2014    9       11    12  28    5.44   468.9    6.6      53.763
2014    9       11    12  34    5.44   469.0    6.6      53.760
2014    9       11    12  39    5.44   469.1    6.6      53.758
2014    9       11    12  45    5.44   469.1    6.6      53.755
2014    9       11    12  51    5.43   469.2    6.6      53.753
2014    9       11    12  56    5.43   469.3    6.6      53.750
2014    9       11    13   2    5.43   469.4    6.6      53.748
2014    9       11    13   7    5.43   469.5    6.6      53.745
2014    9       11    13  13    5.43   469.5    6.6      53.742
2014    9       11    13  19    5.43   469.6    6.6      53.740
2014    9       11    13  24    5.43   469.7    6.6      53.738
2014    9       11    13  30    5.42   469.8    6.6      53.737
2014    9       11    13  36    5.42   469.8    6.6      53.736
2014    9       11    13  41    5.42   469.9    6.6      53.736
2014    9       11    13  47    5.42   470.0    6.6      53.736
2014    9       11    13  52    5.42   470.1    6.6      53.735
2014    9       11    13  58    5.42   470.1    6.6      53.735
2014    9       11    14   4    5.42   470.2    6.6      53.734
2014    9       11    14   9    5.41   470.3    6.6      53.733
2014    9       11    14  15    5.41   470.4    6.5      53.732
2014    9       11    14  20    5.41   470.4    6.5      53.731
2014    9       11    14  26    5.41   470.5    6.5      53.729
2014    9       11    14  32    5.41   470.6    6.5      53.727
2014    9       11    14  37    5.41   470.7    6.5      53.725
2014    9       11    14  43    5.41   470.7    6.5      53.723
2014    9       11    14  49    5.40   470.8    6.5      53.720
2014    9       11    14  54    5.40   470.9    6.5      53.718
2014    9       11    15   0    5.40   470.9    6.5      53.715
2014    9       11    15   5    5.40   471.0    6.5      53.712
2014    9       11    15  11    5.40   471.1    6.5      53.708
2014    9       11    15  17    5.40   471.1    6.5      53.705
2014    9       11    15  22    5.40   471.2    6.5      53.702
2014    9       11    15  28    5.40   471.3    6.5      53.698
2014    9       11    15  34    5.39   471.3    6.5      53.694
2014    9       11    15  39    5.39   471.4    6.5      53.691
2014    9       11    15  45    5.39   471.4    6.5      53.688
2014    9       11    15  50    5.39   471.5    6.5      53.684
2014    9       11    15  56    5.39   471.6    6.5      53.681
2014    9       11    16   2    5.39   471.6    6.5      53.678
2014    9       11    16   7    5.39   471.7    6.5      53.675
2014    9       11    16  13    5.38   471.8    6.5      53.672
2014    9       11    16  18    5.38   471.8    6.5      53.669
2014    9       11    16  24    5.38   471.9    6.5      53.666
2014    9       11    16  30    5.38   472.0    6.5      53.663
2014    9       11    16  35    5.38   472.0    6.5      53.661
2014    9       11    16  41    5.38   472.1    6.5      53.659
2014    9       11    16  47    5.38   472.1    6.5      53.657
2014    9       11    16  52    5.38   472.2    6.4      53.654
2014    9       11    16  58    5.38   472.3    6.4      53.653
2014    9       11    17   3    5.37   472.3    6.4      53.651
2014    9       11    17   9    5.37   472.4    6.4      53.649
2014    9       11    17  15    5.37   472.5    6.4      53.647
2014    9       11    17  20    5.37   472.5    6.4      53.646
2014    9       11    17  26    5.37   472.6    6.4      53.644
2014    9       11    17  32    5.37   472.6    6.4      53.643
2014    9       11    17  37    5.37   472.7    6.4      53.641
2014    9       11    17  43    5.37   472.8    6.4      53.640
2014    9       11    17  48    5.37   472.8    6.4      53.638
2014    9       11    17  54    5.37   472.9    6.4      53.637
2014    9       11    18   0    5.36   472.9    6.4      53.635
2014    9       11    18   5    5.36   473.0    6.4      53.633
2014    9       11    18  11    5.36   473.1    6.4      53.632
2014    9       11    18  16    5.36   473.1    6.4      53.630
2014    9       11    18  22    5.36   473.2    6.4      53.628
2014    9       11    18  28    5.36   473.2    6.4      53.626
2014    9       11    18  33    5.36   473.3    6.4      53.624
2014    9       11    18  39    5.36   473.3    6.4      53.622
2014    9       11    18  45    5.36   473.4    6.4      53.620
2014    9       11    18  50    5.36   473.5    6.4      53.618
2014    9       11    18  56    5.36   473.5    6.4      53.616
2014    9       11    19   1    5.36   473.6    6.4      53.614
2014    9       11    19   7    5.35   473.6    6.4      53.612
2014    9       11    19  13    5.35   473.7    6.4      53.610
2014    9       11    19  18    5.35   473.7    6.4      53.608
2014    9       11    19  24    5.35   473.8    6.4      53.606
2014    9       11    19  30    5.35   473.8    6.4      53.604
2014    9       11    19  35    5.35   473.9    6.4      53.603
2014    9       11    19  41    5.35   473.9    6.4      53.601
2014    9       11    19  46    5.35   474.0    6.4      53.600
2014    9       11    19  52    5.35   474.1    6.4      53.599
2014    9       11    19  58    5.35   474.1    6.4      53.599
2014    9       11    20   3    5.35   474.2    6.4      53.598
2014    9       11    20   9    5.35   474.2    6.4      53.598
2014    9       11    20  14    5.35   474.3    6.4      53.598
2014    9       11    20  20    5.35   474.3    6.4      53.599
2014    9       11    20  26    5.34   474.4    6.4      53.600
2014    9       11    20  31    5.34   474.5    6.4      53.602
2014    9       11    20  37    5.34   474.5    6.4      53.604
2014    9       11    20  43    5.34   474.6    6.4      53.607
2014    9       11    20  48    5.34   474.6    6.4      53.611
2014    9       11    20  54    5.34   474.7    6.4      53.616
2014    9       11    20  59    5.34   474.7    6.4      53.622
2014    9       11    21   5    5.34   474.8    6.4      53.628
2014    9       11    21  11    5.34   474.9    6.4      53.634
2014    9       11    21  16    5.34   474.9    6.4      53.641
2014    9       11    21  22    5.34   475.0    6.4      53.648
2014    9       11    21  28    5.34   475.1    6.4      53.657
2014    9       11    21  33    5.34   475.1    6.4      53.667
2014    9       11    21  39    5.34   475.2    6.4      53.678
2014    9       11    21  44    5.34   475.3    6.4      53.690
2014    9       11    21  50    5.34   475.3    6.4      53.702
2014    9       11    21  56    5.34   475.4    6.4      53.716
2014    9       11    22   1    5.34   475.5    6.4      53.729
2014    9       11    22   7    5.34   475.5    6.4      53.742
2014    9       11    22  12    5.34   475.6    6.4      53.754
2014    9       11    22  18    5.34   475.7    6.4      53.766
2014    9       11    22  24    5.34   475.7    6.3      53.777
2014    9       11    22  29    5.34   475.8    6.3      53.787
2014    9       11    22  35    5.34   475.9    6.3      53.797
2014    9       11    22  41    5.34   475.9    6.3      53.807
2014    9       11    22  46    5.34   476.0    6.3      53.816
2014    9       11    22  52    5.34   476.0    6.3      53.824
2014    9       11    22  57    5.34   476.1    6.3      53.831
2014    9       11    23   3    5.34   476.2    6.3      53.839
2014    9       11    23   9    5.33   476.2    6.3      53.845
2014    9       11    23  14    5.33   476.3    6.3      53.851
2014    9       11    23  20    5.33   476.4    6.3      53.857
2014    9       11    23  26    5.33   476.4    6.3      53.862
2014    9       11    23  31    5.33   476.5    6.3      53.867
2014    9       11    23  37    5.33   476.6    6.3      53.872
2014    9       11    23  42    5.33   476.6    6.3      53.877
2014    9       11    23  48    5.33   476.7    6.3      53.881
2014    9       11    23  54    5.33   476.8    6.3      53.885
2014    9       11    23  59    5.33   476.8    6.3      53.888
2014    9       12     0   5    5.33   476.9    6.3      53.892
