year    month   day   hour  minute  B_enl V_enl   n_enl       T_enl
[year] [month] [day] [hour][minute] [nT]  [km/s]  [cm-3]      [kK]
2014    9       25     0   2    5.96   599.6    3.9      61.541
2014    9       25     0   7    5.95   599.8    3.9      61.541
2014    9       25     0  11    5.95   599.9    3.9      61.542
2014    9       25     0  15    5.95   600.1    3.9      61.542
2014    9       25     0  20    5.95   600.2    3.9      61.542
2014    9       25     0  24    5.94   600.4    3.9      61.543
2014    9       25     0  28    5.94   600.5    3.9      61.543
2014    9       25     0  32    5.94   600.7    3.9      61.542
2014    9       25     0  37    5.94   600.8    3.9      61.542
2014    9       25     0  41    5.93   600.9    3.9      61.542
2014    9       25     0  45    5.93   601.1    3.9      61.542
2014    9       25     0  50    5.93   601.2    3.9      61.542
2014    9       25     0  54    5.93   601.4    3.9      61.542
2014    9       25     0  58    5.92   601.5    3.9      61.541
2014    9       25     1   2    5.92   601.7    3.8      61.541
2014    9       25     1   7    5.92   601.8    3.8      61.542
2014    9       25     1  11    5.91   601.9    3.8      61.542
2014    9       25     1  15    5.91   602.1    3.8      61.543
2014    9       25     1  20    5.91   602.2    3.8      61.544
2014    9       25     1  24    5.91   602.3    3.8      61.546
2014    9       25     1  28    5.90   602.5    3.8      61.548
2014    9       25     1  32    5.90   602.6    3.8      61.550
2014    9       25     1  37    5.90   602.7    3.8      61.553
2014    9       25     1  41    5.90   602.9    3.8      61.556
2014    9       25     1  45    5.89   603.0    3.8      61.561
2014    9       25     1  49    5.89   603.1    3.8      61.565
2014    9       25     1  54    5.89   603.2    3.8      61.571
2014    9       25     1  58    5.89   603.4    3.8      61.577
2014    9       25     2   2    5.88   603.5    3.8      61.584
2014    9       25     2   7    5.88   603.6    3.8      61.592
2014    9       25     2  11    5.88   603.8    3.8      61.601
2014    9       25     2  15    5.88   603.9    3.8      61.610
2014    9       25     2  19    5.87   604.0    3.8      61.621
2014    9       25     2  24    5.87   604.1    3.8      61.633
2014    9       25     2  28    5.87   604.2    3.8      61.645
2014    9       25     2  32    5.86   604.4    3.8      61.658
2014    9       25     2  37    5.86   604.5    3.8      61.672
2014    9       25     2  41    5.86   604.6    3.8      61.687
2014    9       25     2  45    5.86   604.7    3.8      61.703
2014    9       25     2  50    5.85   604.9    3.8      61.719
2014    9       25     2  54    5.85   605.0    3.7      61.735
2014    9       25     2  58    5.85   605.1    3.7      61.752
2014    9       25     3   2    5.85   605.2    3.7      61.769
2014    9       25     3   7    5.84   605.3    3.7      61.786
2014    9       25     3  11    5.84   605.5    3.7      61.804
2014    9       25     3  15    5.84   605.6    3.7      61.821
2014    9       25     3  20    5.83   605.7    3.7      61.837
2014    9       25     3  24    5.83   605.8    3.7      61.853
2014    9       25     3  28    5.83   605.9    3.7      61.868
2014    9       25     3  33    5.83   606.0    3.7      61.883
2014    9       25     3  37    5.82   606.2    3.7      61.897
2014    9       25     3  41    5.82   606.3    3.7      61.911
2014    9       25     3  46    5.82   606.4    3.7      61.924
2014    9       25     3  50    5.81   606.5    3.7      61.937
2014    9       25     3  54    5.81   606.6    3.7      61.948
2014    9       25     3  59    5.81   606.7    3.7      61.959
2014    9       25     4   3    5.81   606.8    3.7      61.969
2014    9       25     4   7    5.80   606.9    3.7      61.978
2014    9       25     4  12    5.80   607.0    3.7      61.986
2014    9       25     4  16    5.80   607.1    3.7      61.993
2014    9       25     4  20    5.79   607.2    3.7      61.999
2014    9       25     4  25    5.79   607.3    3.7      62.005
2014    9       25     4  29    5.79   607.4    3.7      62.008
2014    9       25     4  34    5.78   607.5    3.7      62.011
2014    9       25     4  38    5.78   607.6    3.7      62.013
2014    9       25     4  43    5.78   607.7    3.7      62.014
2014    9       25     4  47    5.77   607.8    3.7      62.013
2014    9       25     4  52    5.77   607.9    3.7      62.011
2014    9       25     4  56    5.77   608.0    3.7      62.009
2014    9       25     5   0    5.76   608.1    3.7      62.005
2014    9       25     5   5    5.76   608.2    3.7      62.000
2014    9       25     5   9    5.76   608.3    3.7      61.995
2014    9       25     5  14    5.75   608.4    3.7      61.988
2014    9       25     5  18    5.75   608.5    3.6      61.981
2014    9       25     5  23    5.75   608.5    3.6      61.973
2014    9       25     5  28    5.74   608.6    3.6      61.964
2014    9       25     5  32    5.74   608.7    3.6      61.954
2014    9       25     5  37    5.74   608.8    3.6      61.943
2014    9       25     5  41    5.73   608.8    3.6      61.932
2014    9       25     5  46    5.73   608.9    3.6      61.920
2014    9       25     5  50    5.73   609.0    3.6      61.908
2014    9       25     5  55    5.72   609.1    3.6      61.895
2014    9       25     5  59    5.72   609.1    3.6      61.881
2014    9       25     6   4    5.72   609.2    3.6      61.867
2014    9       25     6   8    5.71   609.3    3.6      61.852
2014    9       25     6  13    5.71   609.3    3.6      61.837
2014    9       25     6  18    5.71   609.4    3.6      61.822
2014    9       25     6  22    5.70   609.5    3.6      61.806
2014    9       25     6  27    5.70   609.5    3.6      61.790
2014    9       25     6  31    5.70   609.6    3.6      61.773
2014    9       25     6  36    5.69   609.6    3.6      61.757
2014    9       25     6  40    5.69   609.7    3.6      61.740
2014    9       25     6  45    5.69   609.7    3.6      61.724
2014    9       25     6  50    5.68   609.8    3.6      61.707
2014    9       25     6  54    5.68   609.9    3.6      61.689
2014    9       25     6  59    5.68   609.9    3.6      61.672
2014    9       25     7   3    5.67   610.0    3.6      61.654
2014    9       25     7   8    5.67   610.0    3.6      61.636
2014    9       25     7  13    5.67   610.1    3.6      61.618
2014    9       25     7  17    5.67   610.1    3.6      61.600
2014    9       25     7  22    5.66   610.2    3.6      61.582
2014    9       25     7  27    5.66   610.3    3.6      61.564
2014    9       25     7  31    5.66   610.3    3.5      61.546
2014    9       25     7  36    5.65   610.4    3.5      61.528
2014    9       25     7  41    5.65   610.4    3.5      61.508
2014    9       25     7  45    5.65   610.5    3.5      61.489
2014    9       25     7  50    5.64   610.6    3.5      61.469
2014    9       25     7  55    5.64   610.6    3.5      61.449
2014    9       25     8   0    5.64   610.7    3.5      61.428
2014    9       25     8   4    5.63   610.7    3.5      61.407
2014    9       25     8   9    5.63   610.8    3.5      61.386
2014    9       25     8  14    5.63   610.9    3.5      61.365
2014    9       25     8  18    5.62   610.9    3.5      61.343
2014    9       25     8  23    5.62   611.0    3.5      61.321
2014    9       25     8  28    5.62   611.0    3.5      61.299
2014    9       25     8  33    5.61   611.1    3.5      61.276
2014    9       25     8  37    5.61   611.1    3.5      61.254
2014    9       25     8  42    5.61   611.2    3.5      61.231
2014    9       25     8  47    5.60   611.3    3.5      61.209
2014    9       25     8  52    5.60   611.3    3.5      61.186
2014    9       25     8  56    5.60   611.4    3.5      61.163
2014    9       25     9   1    5.59   611.4    3.5      61.141
2014    9       25     9   6    5.59   611.5    3.5      61.118
2014    9       25     9  11    5.59   611.5    3.5      61.096
2014    9       25     9  15    5.58   611.6    3.5      61.074
2014    9       25     9  20    5.58   611.6    3.5      61.052
2014    9       25     9  25    5.58   611.7    3.5      61.031
2014    9       25     9  30    5.57   611.7    3.4      61.010
2014    9       25     9  35    5.57   611.8    3.4      60.989
2014    9       25     9  39    5.57   611.8    3.4      60.970
2014    9       25     9  44    5.56   611.9    3.4      60.950
2014    9       25     9  49    5.56   611.9    3.4      60.932
2014    9       25     9  54    5.56   612.0    3.4      60.914
2014    9       25     9  59    5.55   612.0    3.4      60.897
2014    9       25    10   3    5.55   612.1    3.4      60.880
2014    9       25    10   8    5.55   612.1    3.4      60.865
2014    9       25    10  13    5.54   612.2    3.4      60.850
2014    9       25    10  18    5.54   612.2    3.4      60.836
2014    9       25    10  23    5.54   612.2    3.4      60.822
2014    9       25    10  28    5.53   612.3    3.4      60.810
2014    9       25    10  32    5.53   612.3    3.4      60.798
2014    9       25    10  37    5.53   612.4    3.4      60.787
2014    9       25    10  42    5.52   612.4    3.4      60.776
2014    9       25    10  47    5.52   612.5    3.4      60.767
2014    9       25    10  52    5.52   612.5    3.4      60.758
2014    9       25    10  57    5.51   612.5    3.4      60.749
2014    9       25    11   1    5.51   612.6    3.4      60.741
2014    9       25    11   6    5.51   612.6    3.4      60.734
2014    9       25    11  11    5.50   612.7    3.4      60.727
2014    9       25    11  16    5.50   612.7    3.4      60.720
2014    9       25    11  21    5.50   612.7    3.4      60.713
2014    9       25    11  26    5.49   612.8    3.4      60.706
2014    9       25    11  31    5.49   612.8    3.4      60.699
2014    9       25    11  35    5.49   612.8    3.4      60.692
2014    9       25    11  40    5.48   612.8    3.4      60.684
2014    9       25    11  45    5.48   612.9    3.4      60.677
2014    9       25    11  50    5.48   612.9    3.4      60.669
2014    9       25    11  55    5.47   612.9    3.4      60.660
2014    9       25    12   0    5.47   613.0    3.4      60.651
2014    9       25    12   5    5.47   613.0    3.4      60.642
2014    9       25    12  10    5.46   613.0    3.4      60.632
2014    9       25    12  14    5.46   613.0    3.4      60.621
2014    9       25    12  19    5.46   613.0    3.4      60.610
2014    9       25    12  24    5.45   613.0    3.4      60.599
2014    9       25    12  29    5.45   613.0    3.4      60.587
2014    9       25    12  34    5.45   613.1    3.4      60.574
2014    9       25    12  39    5.44   613.1    3.4      60.561
2014    9       25    12  44    5.44   613.1    3.4      60.548
2014    9       25    12  49    5.44   613.1    3.4      60.534
2014    9       25    12  54    5.43   613.1    3.4      60.520
2014    9       25    12  59    5.43   613.1    3.4      60.505
2014    9       25    13   3    5.43   613.1    3.3      60.490
2014    9       25    13   8    5.42   613.1    3.3      60.474
2014    9       25    13  13    5.42   613.0    3.3      60.458
2014    9       25    13  18    5.42   613.0    3.3      60.442
2014    9       25    13  23    5.41   613.0    3.3      60.425
2014    9       25    13  28    5.41   613.0    3.3      60.408
2014    9       25    13  33    5.41   613.0    3.3      60.390
2014    9       25    13  38    5.40   612.9    3.3      60.372
2014    9       25    13  43    5.40   612.9    3.3      60.354
2014    9       25    13  48    5.40   612.9    3.3      60.336
2014    9       25    13  53    5.40   612.9    3.3      60.317
2014    9       25    13  58    5.39   612.9    3.3      60.298
2014    9       25    14   3    5.39   612.8    3.3      60.279
2014    9       25    14   8    5.39   612.8    3.3      60.259
2014    9       25    14  13    5.38   612.8    3.3      60.239
2014    9       25    14  18    5.38   612.8    3.3      60.219
2014    9       25    14  23    5.38   612.8    3.3      60.198
2014    9       25    14  28    5.38   612.7    3.3      60.178
2014    9       25    14  33    5.37   612.7    3.3      60.157
2014    9       25    14  38    5.37   612.7    3.3      60.136
2014    9       25    14  43    5.37   612.7    3.3      60.114
2014    9       25    14  48    5.37   612.7    3.3      60.092
2014    9       25    14  53    5.36   612.6    3.3      60.069
2014    9       25    14  58    5.36   612.6    3.3      60.045
2014    9       25    15   3    5.36   612.6    3.3      60.021
2014    9       25    15   8    5.36   612.6    3.3      59.997
2014    9       25    15  13    5.35   612.6    3.3      59.972
2014    9       25    15  18    5.35   612.5    3.3      59.946
2014    9       25    15  23    5.35   612.5    3.3      59.920
2014    9       25    15  28    5.34   612.5    3.3      59.894
2014    9       25    15  33    5.34   612.5    3.3      59.867
2014    9       25    15  38    5.34   612.5    3.3      59.840
2014    9       25    15  43    5.34   612.4    3.3      59.813
2014    9       25    15  48    5.33   612.4    3.3      59.785
2014    9       25    15  53    5.33   612.4    3.3      59.757
2014    9       25    15  58    5.33   612.4    3.3      59.729
2014    9       25    16   3    5.33   612.4    3.3      59.700
2014    9       25    16   8    5.32   612.3    3.3      59.672
2014    9       25    16  13    5.32   612.3    3.3      59.642
2014    9       25    16  18    5.32   612.3    3.3      59.613
2014    9       25    16  23    5.31   612.3    3.3      59.584
2014    9       25    16  28    5.31   612.3    3.3      59.554
2014    9       25    16  33    5.31   612.2    3.3      59.525
2014    9       25    16  39    5.31   612.2    3.3      59.495
2014    9       25    16  44    5.30   612.2    3.3      59.466
2014    9       25    16  49    5.30   612.2    3.3      59.436
2014    9       25    16  54    5.30   612.2    3.3      59.407
2014    9       25    16  59    5.29   612.1    3.3      59.377
2014    9       25    17   4    5.29   612.1    3.2      59.348
2014    9       25    17   9    5.29   612.1    3.2      59.319
2014    9       25    17  15    5.29   612.1    3.2      59.289
2014    9       25    17  20    5.28   612.1    3.2      59.261
2014    9       25    17  25    5.28   612.0    3.2      59.233
2014    9       25    17  30    5.28   612.0    3.2      59.204
2014    9       25    17  35    5.27   612.0    3.2      59.177
2014    9       25    17  40    5.27   612.0    3.2      59.149
2014    9       25    17  46    5.27   611.9    3.2      59.123
2014    9       25    17  51    5.27   611.9    3.2      59.096
2014    9       25    17  56    5.26   611.9    3.2      59.070
2014    9       25    18   1    5.26   611.9    3.2      59.044
2014    9       25    18   6    5.26   611.9    3.2      59.019
2014    9       25    18  11    5.25   611.8    3.2      58.995
2014    9       25    18  17    5.25   611.8    3.2      58.971
2014    9       25    18  22    5.25   611.8    3.2      58.948
2014    9       25    18  27    5.25   611.8    3.2      58.925
2014    9       25    18  32    5.24   611.7    3.2      58.904
2014    9       25    18  38    5.24   611.7    3.2      58.882
2014    9       25    18  43    5.24   611.7    3.2      58.862
2014    9       25    18  48    5.23   611.7    3.2      58.843
2014    9       25    18  53    5.23   611.6    3.2      58.824
2014    9       25    18  59    5.23   611.6    3.2      58.806
2014    9       25    19   4    5.23   611.6    3.2      58.788
2014    9       25    19   9    5.22   611.5    3.2      58.772
2014    9       25    19  14    5.22   611.5    3.2      58.757
2014    9       25    19  20    5.22   611.5    3.2      58.742
2014    9       25    19  25    5.22   611.5    3.2      58.728
2014    9       25    19  30    5.21   611.4    3.2      58.715
2014    9       25    19  36    5.21   611.4    3.2      58.703
2014    9       25    19  41    5.21   611.4    3.2      58.691
2014    9       25    19  46    5.20   611.3    3.2      58.680
2014    9       25    19  52    5.20   611.3    3.2      58.670
2014    9       25    19  57    5.20   611.3    3.2      58.660
2014    9       25    20   2    5.20   611.2    3.2      58.652
2014    9       25    20   8    5.19   611.2    3.2      58.644
2014    9       25    20  13    5.19   611.2    3.2      58.636
2014    9       25    20  18    5.19   611.1    3.2      58.629
2014    9       25    20  24    5.19   611.1    3.2      58.622
2014    9       25    20  29    5.18   611.1    3.2      58.615
2014    9       25    20  34    5.18   611.0    3.2      58.609
2014    9       25    20  40    5.18   611.0    3.2      58.602
2014    9       25    20  45    5.18   611.0    3.2      58.596
2014    9       25    20  50    5.18   610.9    3.2      58.590
2014    9       25    20  56    5.17   610.9    3.2      58.583
2014    9       25    21   1    5.17   610.8    3.2      58.577
2014    9       25    21   6    5.17   610.8    3.2      58.570
2014    9       25    21  12    5.17   610.8    3.2      58.563
2014    9       25    21  17    5.16   610.7    3.2      58.556
2014    9       25    21  23    5.16   610.7    3.2      58.549
2014    9       25    21  28    5.16   610.7    3.2      58.541
2014    9       25    21  33    5.16   610.6    3.2      58.533
2014    9       25    21  39    5.16   610.6    3.2      58.524
2014    9       25    21  44    5.15   610.6    3.2      58.515
2014    9       25    21  50    5.15   610.5    3.2      58.505
2014    9       25    21  55    5.15   610.5    3.2      58.494
2014    9       25    22   1    5.15   610.4    3.2      58.483
2014    9       25    22   6    5.15   610.4    3.2      58.471
2014    9       25    22  11    5.14   610.4    3.2      58.459
2014    9       25    22  17    5.14   610.3    3.2      58.446
2014    9       25    22  22    5.14   610.3    3.2      58.432
2014    9       25    22  28    5.14   610.3    3.2      58.417
2014    9       25    22  33    5.13   610.2    3.2      58.402
2014    9       25    22  39    5.13   610.2    3.2      58.386
2014    9       25    22  44    5.13   610.2    3.2      58.369
2014    9       25    22  50    5.13   610.1    3.2      58.351
2014    9       25    22  55    5.13   610.1    3.2      58.333
2014    9       25    23   1    5.12   610.0    3.2      58.314
2014    9       25    23   6    5.12   610.0    3.2      58.294
2014    9       25    23  12    5.12   610.0    3.2      58.273
2014    9       25    23  17    5.12   609.9    3.2      58.252
2014    9       25    23  23    5.11   609.9    3.2      58.230
2014    9       25    23  28    5.11   609.8    3.2      58.208
2014    9       25    23  33    5.11   609.8    3.2      58.184
2014    9       25    23  39    5.11   609.7    3.2      58.160
2014    9       25    23  44    5.10   609.7    3.2      58.136
2014    9       25    23  50    5.10   609.6    3.2      58.111
2014    9       25    23  55    5.10   609.6    3.2      58.085
2014    9       26     0   1    5.10   609.5    3.2      58.059
2014    9       26     0   6    5.09   609.5    3.2      58.032
2014    9       26     0  12    5.09   609.4    3.2      58.005
2014    9       26     0  17    5.09   609.4    3.2      57.977
2014    9       26     0  23    5.09   609.3    3.2      57.949
2014    9       26     0  28    5.09   609.3    3.2      57.920
2014    9       26     0  34    5.08   609.2    3.2      57.891
2014    9       26     0  39    5.08   609.2    3.2      57.862
2014    9       26     0  45    5.08   609.1    3.2      57.832
2014    9       26     0  50    5.08   609.1    3.2      57.802
2014    9       26     0  56    5.07   609.0    3.2      57.771
2014    9       26     1   1    5.07   608.9    3.2      57.740
2014    9       26     1   7    5.07   608.9    3.1      57.709
2014    9       26     1  12    5.07   608.8    3.1      57.677
2014    9       26     1  18    5.06   608.7    3.1      57.645
2014    9       26     1  23    5.06   608.7    3.1      57.613
2014    9       26     1  29    5.06   608.6    3.1      57.581
2014    9       26     1  34    5.06   608.5    3.1      57.549
2014    9       26     1  40    5.05   608.5    3.1      57.517
2014    9       26     1  45    5.05   608.4    3.1      57.485
2014    9       26     1  51    5.05   608.3    3.1      57.453
2014    9       26     1  56    5.05   608.3    3.1      57.422
2014    9       26     2   2    5.05   608.2    3.1      57.390
2014    9       26     2   7    5.04   608.1    3.1      57.359
2014    9       26     2  13    5.04   608.0    3.1      57.329
2014    9       26     2  18    5.04   608.0    3.1      57.299
2014    9       26     2  24    5.04   607.9    3.1      57.270
2014    9       26     2  29    5.03   607.8    3.1      57.242
2014    9       26     2  35    5.03   607.7    3.1      57.214
2014    9       26     2  40    5.03   607.6    3.1      57.188
2014    9       26     2  46    5.03   607.6    3.1      57.163
2014    9       26     2  51    5.03   607.5    3.1      57.139
2014    9       26     2  57    5.02   607.4    3.1      57.117
2014    9       26     3   2    5.02   607.3    3.1      57.096
2014    9       26     3   8    5.02   607.3    3.1      57.077
2014    9       26     3  13    5.02   607.2    3.1      57.060
2014    9       26     3  19    5.02   607.1    3.1      57.043
2014    9       26     3  24    5.01   607.0    3.1      57.029
2014    9       26     3  30    5.01   607.0    3.1      57.015
2014    9       26     3  35    5.01   606.9    3.1      57.003
2014    9       26     3  41    5.01   606.8    3.1      56.993
2014    9       26     3  46    5.01   606.8    3.1      56.983
2014    9       26     3  52    5.01   606.7    3.1      56.974
2014    9       26     3  57    5.00   606.7    3.1      56.966
2014    9       26     4   3    5.00   606.6    3.1      56.958
2014    9       26     4   8    5.00   606.6    3.1      56.950
2014    9       26     4  14    5.00   606.5    3.1      56.942
2014    9       26     4  19    5.00   606.5    3.1      56.933
2014    9       26     4  25    5.00   606.4    3.1      56.925
2014    9       26     4  30    4.99   606.3    3.1      56.916
2014    9       26     4  36    4.99   606.3    3.1      56.907
2014    9       26     4  41    4.99   606.2    3.1      56.897
2014    9       26     4  47    4.99   606.2    3.1      56.888
2014    9       26     4  52    4.99   606.1    3.1      56.877
2014    9       26     4  58    4.99   606.1    3.1      56.867
2014    9       26     5   3    4.98   606.0    3.1      56.856
2014    9       26     5   9    4.98   606.0    3.1      56.844
2014    9       26     5  14    4.98   605.9    3.1      56.832
2014    9       26     5  20    4.98   605.9    3.1      56.819
2014    9       26     5  25    4.98   605.8    3.1      56.806
2014    9       26     5  31    4.98   605.8    3.1      56.793
2014    9       26     5  36    4.97   605.7    3.1      56.779
2014    9       26     5  42    4.97   605.7    3.1      56.765
2014    9       26     5  47    4.97   605.6    3.1      56.751
2014    9       26     5  53    4.97   605.6    3.1      56.736
2014    9       26     5  58    4.97   605.5    3.1      56.721
2014    9       26     6   4    4.97   605.5    3.1      56.705
2014    9       26     6   9    4.96   605.4    3.1      56.689
2014    9       26     6  15    4.96   605.4    3.1      56.672
2014    9       26     6  20    4.96   605.3    3.1      56.655
2014    9       26     6  26    4.96   605.3    3.1      56.638
2014    9       26     6  31    4.96   605.2    3.1      56.621
2014    9       26     6  37    4.95   605.2    3.1      56.603
2014    9       26     6  42    4.95   605.1    3.1      56.586
2014    9       26     6  48    4.95   605.1    3.1      56.568
2014    9       26     6  53    4.95   605.0    3.1      56.551
2014    9       26     6  59    4.95   605.0    3.1      56.534
2014    9       26     7   4    4.95   604.9    3.1      56.517
2014    9       26     7  10    4.94   604.9    3.1      56.500
2014    9       26     7  15    4.94   604.8    3.1      56.484
2014    9       26     7  21    4.94   604.7    3.1      56.468
2014    9       26     7  26    4.94   604.7    3.1      56.453
2014    9       26     7  32    4.94   604.6    3.1      56.439
2014    9       26     7  37    4.94   604.6    3.1      56.426
2014    9       26     7  43    4.93   604.5    3.1      56.413
2014    9       26     7  48    4.93   604.4    3.1      56.401
2014    9       26     7  54    4.93   604.4    3.1      56.391
2014    9       26     7  59    4.93   604.3    3.1      56.381
2014    9       26     8   5    4.93   604.3    3.1      56.372
2014    9       26     8  10    4.93   604.2    3.1      56.365
2014    9       26     8  16    4.93   604.1    3.1      56.359
2014    9       26     8  21    4.92   604.1    3.1      56.353
2014    9       26     8  27    4.92   604.0    3.1      56.348
2014    9       26     8  32    4.92   604.0    3.1      56.343
2014    9       26     8  38    4.92   603.9    3.1      56.339
2014    9       26     8  43    4.92   603.8    3.1      56.336
2014    9       26     8  49    4.92   603.8    3.1      56.334
2014    9       26     8  54    4.91   603.7    3.1      56.333
2014    9       26     8  59    4.91   603.7    3.1      56.332
2014    9       26     9   5    4.91   603.6    3.1      56.332
2014    9       26     9  10    4.91   603.6    3.1      56.331
2014    9       26     9  15    4.91   603.5    3.1      56.328
2014    9       26     9  21    4.90   603.4    3.1      56.323
2014    9       26     9  26    4.90   603.4    3.1      56.317
2014    9       26     9  31    4.90   603.3    3.1      56.310
2014    9       26     9  37    4.90   603.2    3.1      56.302
2014    9       26     9  42    4.90   603.2    3.1      56.293
2014    9       26     9  47    4.90   603.1    3.1      56.282
2014    9       26     9  52    4.89   603.0    3.1      56.271
2014    9       26     9  58    4.89   603.0    3.1      56.259
2014    9       26    10   3    4.89   602.9    3.1      56.246
2014    9       26    10   8    4.89   602.8    3.1      56.233
2014    9       26    10  13    4.89   602.8    3.1      56.219
2014    9       26    10  18    4.89   602.7    3.1      56.205
2014    9       26    10  24    4.88   602.6    3.1      56.190
2014    9       26    10  29    4.88   602.6    3.1      56.175
2014    9       26    10  34    4.88   602.5    3.1      56.160
2014    9       26    10  39    4.88   602.4    3.1      56.145
2014    9       26    10  45    4.88   602.3    3.1      56.130
2014    9       26    10  50    4.88   602.3    3.1      56.114
2014    9       26    10  55    4.87   602.2    3.1      56.098
2014    9       26    11   0    4.87   602.1    3.1      56.082
2014    9       26    11   5    4.87   602.1    3.1      56.065
2014    9       26    11  10    4.87   602.0    3.1      56.047
2014    9       26    11  16    4.87   601.9    3.1      56.027
2014    9       26    11  21    4.87   601.8    3.1      56.007
2014    9       26    11  26    4.87   601.8    3.1      55.986
2014    9       26    11  31    4.86   601.7    3.1      55.965
2014    9       26    11  36    4.86   601.6    3.1      55.943
2014    9       26    11  42    4.86   601.5    3.1      55.919
2014    9       26    11  47    4.86   601.5    3.1      55.896
2014    9       26    11  52    4.86   601.4    3.1      55.872
2014    9       26    11  57    4.86   601.3    3.1      55.847
2014    9       26    12   2    4.86   601.2    3.1      55.822
2014    9       26    12   7    4.85   601.1    3.1      55.797
2014    9       26    12  13    4.85   601.1    3.1      55.771
2014    9       26    12  18    4.85   601.0    3.1      55.745
2014    9       26    12  23    4.85   600.9    3.1      55.719
2014    9       26    12  28    4.85   600.8    3.1      55.692
2014    9       26    12  33    4.85   600.7    3.1      55.665
2014    9       26    12  38    4.85   600.7    3.1      55.638
2014    9       26    12  44    4.84   600.6    3.1      55.611
2014    9       26    12  49    4.84   600.5    3.1      55.584
2014    9       26    12  54    4.84   600.4    3.1      55.556
2014    9       26    12  59    4.84   600.3    3.1      55.529
2014    9       26    13   4    4.84   600.3    3.1      55.501
2014    9       26    13   9    4.84   600.2    3.1      55.474
2014    9       26    13  15    4.84   600.1    3.1      55.446
2014    9       26    13  20    4.84   600.0    3.1      55.419
2014    9       26    13  25    4.84   599.9    3.1      55.392
2014    9       26    13  30    4.83   599.9    3.1      55.364
2014    9       26    13  35    4.83   599.8    3.1      55.337
2014    9       26    13  41    4.83   599.7    3.1      55.310
2014    9       26    13  46    4.83   599.6    3.1      55.284
2014    9       26    13  51    4.83   599.6    3.1      55.258
2014    9       26    13  56    4.83   599.5    3.1      55.232
2014    9       26    14   2    4.83   599.4    3.1      55.206
2014    9       26    14   7    4.83   599.3    3.1      55.182
2014    9       26    14  12    4.83   599.3    3.1      55.158
2014    9       26    14  17    4.82   599.2    3.1      55.135
2014    9       26    14  22    4.82   599.1    3.1      55.112
2014    9       26    14  28    4.82   599.0    3.1      55.090
2014    9       26    14  33    4.82   599.0    3.1      55.070
2014    9       26    14  38    4.82   598.9    3.1      55.051
2014    9       26    14  43    4.82   598.8    3.1      55.033
2014    9       26    14  49    4.82   598.8    3.1      55.016
2014    9       26    14  54    4.82   598.7    3.1      55.001
2014    9       26    14  59    4.82   598.6    3.1      54.987
2014    9       26    15   4    4.82   598.6    3.1      54.976
2014    9       26    15  10    4.81   598.5    3.1      54.965
2014    9       26    15  15    4.81   598.4    3.1      54.957
2014    9       26    15  20    4.81   598.4    3.1      54.951
2014    9       26    15  25    4.81   598.3    3.1      54.947
2014    9       26    15  31    4.81   598.2    3.1      54.944
2014    9       26    15  36    4.81   598.2    3.1      54.943
2014    9       26    15  41    4.81   598.1    3.1      54.943
2014    9       26    15  47    4.81   598.1    3.1      54.944
2014    9       26    15  52    4.81   598.0    3.1      54.949
2014    9       26    15  57    4.80   597.9    3.1      54.954
2014    9       26    16   2    4.80   597.9    3.1      54.961
2014    9       26    16   8    4.80   597.8    3.1      54.970
2014    9       26    16  13    4.80   597.8    3.1      54.980
2014    9       26    16  18    4.80   597.7    3.1      54.989
2014    9       26    16  24    4.80   597.7    3.1      54.998
2014    9       26    16  29    4.79   597.6    3.1      55.005
2014    9       26    16  35    4.79   597.5    3.1      55.012
2014    9       26    16  40    4.79   597.5    3.1      55.017
2014    9       26    16  46    4.79   597.4    3.1      55.022
2014    9       26    16  51    4.79   597.3    3.1      55.026
2014    9       26    16  57    4.79   597.3    3.1      55.029
2014    9       26    17   2    4.78   597.2    3.1      55.030
2014    9       26    17   8    4.78   597.1    3.1      55.031
2014    9       26    17  13    4.78   597.0    3.1      55.030
2014    9       26    17  19    4.78   597.0    3.1      55.028
2014    9       26    17  24    4.78   596.9    3.1      55.025
2014    9       26    17  29    4.78   596.8    3.1      55.022
2014    9       26    17  35    4.77   596.7    3.1      55.017
2014    9       26    17  40    4.77   596.6    3.1      55.011
2014    9       26    17  46    4.77   596.5    3.1      55.004
2014    9       26    17  51    4.77   596.4    3.1      54.996
2014    9       26    17  57    4.77   596.3    3.1      54.988
2014    9       26    18   2    4.77   596.2    3.1      54.979
2014    9       26    18   8    4.76   596.1    3.1      54.969
2014    9       26    18  13    4.76   596.0    3.1      54.960
2014    9       26    18  19    4.76   595.9    3.1      54.950
2014    9       26    18  24    4.76   595.8    3.1      54.940
2014    9       26    18  30    4.76   595.6    3.1      54.929
2014    9       26    18  35    4.76   595.5    3.1      54.920
2014    9       26    18  40    4.75   595.4    3.1      54.912
2014    9       26    18  46    4.75   595.3    3.1      54.904
2014    9       26    18  51    4.75   595.2    3.1      54.896
2014    9       26    18  57    4.75   595.0    3.1      54.889
2014    9       26    19   2    4.75   594.9    3.1      54.882
2014    9       26    19   8    4.75   594.8    3.1      54.877
2014    9       26    19  13    4.75   594.7    3.1      54.873
2014    9       26    19  19    4.75   594.6    3.1      54.869
2014    9       26    19  24    4.75   594.5    3.1      54.865
2014    9       26    19  30    4.75   594.4    3.1      54.863
2014    9       26    19  35    4.75   594.3    3.1      54.859
2014    9       26    19  41    4.75   594.2    3.1      54.854
2014    9       26    19  46    4.74   594.1    3.1      54.847
2014    9       26    19  52    4.74   594.0    3.1      54.839
2014    9       26    19  57    4.74   593.9    3.1      54.830
2014    9       26    20   2    4.74   593.8    3.1      54.819
2014    9       26    20   8    4.74   593.8    3.1      54.808
2014    9       26    20  13    4.74   593.7    3.1      54.795
2014    9       26    20  19    4.74   593.6    3.1      54.781
2014    9       26    20  24    4.74   593.5    3.1      54.766
2014    9       26    20  30    4.74   593.4    3.1      54.750
2014    9       26    20  35    4.74   593.3    3.1      54.733
2014    9       26    20  41    4.74   593.2    3.1      54.714
2014    9       26    20  46    4.74   593.2    3.1      54.695
2014    9       26    20  52    4.74   593.1    3.1      54.674
2014    9       26    20  57    4.74   593.0    3.1      54.653
2014    9       26    21   3    4.73   592.9    3.1      54.630
2014    9       26    21   8    4.73   592.8    3.1      54.607
2014    9       26    21  14    4.73   592.8    3.1      54.583
2014    9       26    21  19    4.73   592.7    3.1      54.558
2014    9       26    21  25    4.73   592.6    3.1      54.533
2014    9       26    21  30    4.73   592.5    3.1      54.507
2014    9       26    21  35    4.73   592.4    3.1      54.480
2014    9       26    21  41    4.73   592.4    3.1      54.453
2014    9       26    21  46    4.73   592.3    3.1      54.425
2014    9       26    21  52    4.72   592.2    3.1      54.397
2014    9       26    21  57    4.72   592.1    3.1      54.368
2014    9       26    22   3    4.72   592.0    3.1      54.340
2014    9       26    22   8    4.72   591.9    3.1      54.311
2014    9       26    22  14    4.72   591.8    3.1      54.282
2014    9       26    22  19    4.72   591.8    3.1      54.253
2014    9       26    22  25    4.72   591.7    3.1      54.225
2014    9       26    22  30    4.72   591.6    3.1      54.196
2014    9       26    22  36    4.71   591.5    3.1      54.168
2014    9       26    22  41    4.71   591.4    3.1      54.139
2014    9       26    22  47    4.71   591.3    3.1      54.112
2014    9       26    22  52    4.71   591.2    3.1      54.084
2014    9       26    22  58    4.71   591.1    3.1      54.057
2014    9       26    23   3    4.71   591.0    3.1      54.031
2014    9       26    23   9    4.71   590.9    3.1      54.005
2014    9       26    23  14    4.70   590.8    3.1      53.980
2014    9       26    23  19    4.70   590.7    3.1      53.956
2014    9       26    23  25    4.70   590.6    3.1      53.932
2014    9       26    23  30    4.70   590.5    3.1      53.909
2014    9       26    23  36    4.70   590.4    3.1      53.887
2014    9       26    23  41    4.70   590.3    3.1      53.865
2014    9       26    23  47    4.69   590.2    3.1      53.844
2014    9       26    23  52    4.69   590.1    3.1      53.824
2014    9       26    23  58    4.69   590.0    3.1      53.805
2014    9       27     0   3    4.69   589.9    3.1      53.785
2014    9       27     0   9    4.69   589.8    3.1      53.767
2014    9       27     0  14    4.69   589.6    3.1      53.749
2014    9       27     0  20    4.69   589.5    3.1      53.731
2014    9       27     0  25    4.68   589.4    3.1      53.713
2014    9       27     0  31    4.68   589.3    3.1      53.696
2014    9       27     0  36    4.68   589.2    3.1      53.680
2014    9       27     0  42    4.68   589.0    3.1      53.663
2014    9       27     0  47    4.68   588.9    3.1      53.648
2014    9       27     0  53    4.68   588.8    3.1      53.633
2014    9       27     0  58    4.67   588.6    3.1      53.619
2014    9       27     1   4    4.67   588.5    3.1      53.606
2014    9       27     1   9    4.67   588.3    3.1      53.594
2014    9       27     1  14    4.67   588.2    3.1      53.583
2014    9       27     1  20    4.67   588.0    3.1      53.574
2014    9       27     1  25    4.67   587.9    3.1      53.567
2014    9       27     1  31    4.67   587.8    3.1      53.561
2014    9       27     1  36    4.67   587.6    3.1      53.558
2014    9       27     1  42    4.67   587.5    3.1      53.557
2014    9       27     1  47    4.67   587.3    3.1      53.559
2014    9       27     1  53    4.66   587.2    3.1      53.563
2014    9       27     1  58    4.66   587.1    3.1      53.569
2014    9       27     2   4    4.66   586.9    3.1      53.578
2014    9       27     2   9    4.66   586.8    3.1      53.589
2014    9       27     2  15    4.66   586.7    3.1      53.602
2014    9       27     2  20    4.66   586.5    3.1      53.618
2014    9       27     2  26    4.66   586.4    3.1      53.636
2014    9       27     2  31    4.66   586.3    3.1      53.656
2014    9       27     2  37    4.66   586.2    3.1      53.678
2014    9       27     2  42    4.66   586.1    3.1      53.699
2014    9       27     2  48    4.66   586.0    3.1      53.719
2014    9       27     2  53    4.66   585.9    3.1      53.739
2014    9       27     2  59    4.66   585.8    3.1      53.757
2014    9       27     3   4    4.66   585.7    3.1      53.773
2014    9       27     3   9    4.66   585.6    3.1      53.789
2014    9       27     3  15    4.66   585.5    3.1      53.803
2014    9       27     3  20    4.66   585.4    3.1      53.816
2014    9       27     3  26    4.66   585.3    3.1      53.827
2014    9       27     3  31    4.66   585.2    3.1      53.836
2014    9       27     3  37    4.66   585.1    3.1      53.844
2014    9       27     3  42    4.66   585.0    3.1      53.851
2014    9       27     3  48    4.66   584.8    3.1      53.857
2014    9       27     3  53    4.66   584.7    3.1      53.861
2014    9       27     3  59    4.66   584.6    3.1      53.863
2014    9       27     4   4    4.65   584.5    3.1      53.864
2014    9       27     4  10    4.65   584.4    3.1      53.865
2014    9       27     4  15    4.65   584.3    3.1      53.864
2014    9       27     4  21    4.65   584.2    3.1      53.862
2014    9       27     4  26    4.65   584.1    3.1      53.859
2014    9       27     4  32    4.65   584.0    3.2      53.855
2014    9       27     4  37    4.65   583.8    3.2      53.851
2014    9       27     4  43    4.65   583.7    3.2      53.846
2014    9       27     4  48    4.65   583.6    3.2      53.841
2014    9       27     4  54    4.65   583.5    3.2      53.836
2014    9       27     4  59    4.65   583.4    3.2      53.830
2014    9       27     5   5    4.64   583.3    3.2      53.824
2014    9       27     5  10    4.64   583.1    3.2      53.819
2014    9       27     5  16    4.64   583.0    3.2      53.813
2014    9       27     5  21    4.64   582.9    3.2      53.809
2014    9       27     5  27    4.64   582.8    3.2      53.804
2014    9       27     5  32    4.64   582.7    3.2      53.801
2014    9       27     5  37    4.64   582.6    3.2      53.798
2014    9       27     5  43    4.64   582.5    3.2      53.795
2014    9       27     5  48    4.64   582.4    3.2      53.791
2014    9       27     5  54    4.64   582.2    3.2      53.787
2014    9       27     5  59    4.64   582.1    3.2      53.782
2014    9       27     6   5    4.63   582.0    3.2      53.775
2014    9       27     6  10    4.63   581.9    3.2      53.768
2014    9       27     6  16    4.63   581.8    3.2      53.759
2014    9       27     6  21    4.63   581.7    3.2      53.750
2014    9       27     6  27    4.63   581.5    3.2      53.739
2014    9       27     6  32    4.63   581.4    3.2      53.727
2014    9       27     6  38    4.63   581.3    3.2      53.715
2014    9       27     6  43    4.63   581.2    3.2      53.701
2014    9       27     6  49    4.63   581.1    3.2      53.686
2014    9       27     6  54    4.62   580.9    3.2      53.671
2014    9       27     7   0    4.62   580.8    3.2      53.655
2014    9       27     7   5    4.62   580.7    3.2      53.638
2014    9       27     7  11    4.62   580.6    3.2      53.621
2014    9       27     7  16    4.62   580.4    3.2      53.602
2014    9       27     7  22    4.62   580.3    3.2      53.584
2014    9       27     7  27    4.62   580.2    3.2      53.565
2014    9       27     7  33    4.62   580.0    3.2      53.545
2014    9       27     7  38    4.62   579.9    3.2      53.525
2014    9       27     7  44    4.62   579.8    3.2      53.505
2014    9       27     7  49    4.61   579.6    3.2      53.485
2014    9       27     7  55    4.61   579.5    3.2      53.465
2014    9       27     8   0    4.61   579.3    3.2      53.446
2014    9       27     8   5    4.61   579.2    3.2      53.427
2014    9       27     8  11    4.61   579.1    3.2      53.408
2014    9       27     8  16    4.61   578.9    3.2      53.390
2014    9       27     8  22    4.61   578.8    3.2      53.373
2014    9       27     8  27    4.61   578.7    3.2      53.357
2014    9       27     8  33    4.61   578.5    3.2      53.342
2014    9       27     8  38    4.61   578.4    3.2      53.328
2014    9       27     8  44    4.61   578.2    3.2      53.316
2014    9       27     8  49    4.61   578.1    3.2      53.304
2014    9       27     8  55    4.61   578.0    3.2      53.293
2014    9       27     9   0    4.60   577.9    3.2      53.284
2014    9       27     9   6    4.60   577.7    3.2      53.276
2014    9       27     9  11    4.60   577.6    3.2      53.269
2014    9       27     9  17    4.60   577.5    3.2      53.262
2014    9       27     9  22    4.60   577.3    3.2      53.256
2014    9       27     9  28    4.60   577.2    3.2      53.251
2014    9       27     9  33    4.60   577.1    3.2      53.246
2014    9       27     9  39    4.60   576.9    3.2      53.241
2014    9       27     9  44    4.60   576.8    3.2      53.237
2014    9       27     9  50    4.60   576.7    3.2      53.232
2014    9       27     9  55    4.60   576.5    3.2      53.228
2014    9       27    10   1    4.60   576.4    3.2      53.223
2014    9       27    10   6    4.60   576.3    3.2      53.218
2014    9       27    10  12    4.60   576.1    3.2      53.213
2014    9       27    10  17    4.60   576.0    3.2      53.207
2014    9       27    10  23    4.60   575.8    3.2      53.201
2014    9       27    10  28    4.60   575.7    3.2      53.195
2014    9       27    10  33    4.59   575.5    3.2      53.188
2014    9       27    10  39    4.59   575.4    3.2      53.181
2014    9       27    10  44    4.59   575.2    3.2      53.173
2014    9       27    10  50    4.59   575.1    3.2      53.166
2014    9       27    10  55    4.59   574.9    3.2      53.157
2014    9       27    11   1    4.59   574.8    3.2      53.149
2014    9       27    11   6    4.59   574.6    3.2      53.141
2014    9       27    11  12    4.59   574.4    3.2      53.133
2014    9       27    11  17    4.59   574.3    3.2      53.126
2014    9       27    11  23    4.59   574.1    3.2      53.119
2014    9       27    11  28    4.59   573.9    3.2      53.112
2014    9       27    11  34    4.59   573.8    3.2      53.107
2014    9       27    11  39    4.59   573.6    3.2      53.102
2014    9       27    11  45    4.58   573.4    3.2      53.099
2014    9       27    11  50    4.58   573.3    3.2      53.096
2014    9       27    11  56    4.58   573.1    3.2      53.096
2014    9       27    12   1    4.58   572.9    3.2      53.096
2014    9       27    12   7    4.58   572.8    3.2      53.097
2014    9       27    12  12    4.58   572.6    3.2      53.099
2014    9       27    12  18    4.58   572.5    3.2      53.102
2014    9       27    12  23    4.58   572.3    3.2      53.105
2014    9       27    12  29    4.58   572.1    3.2      53.109
2014    9       27    12  34    4.58   572.0    3.2      53.113
2014    9       27    12  40    4.58   571.8    3.2      53.118
2014    9       27    12  45    4.58   571.6    3.2      53.123
2014    9       27    12  51    4.58   571.5    3.2      53.129
2014    9       27    12  56    4.58   571.3    3.2      53.136
2014    9       27    13   2    4.58   571.2    3.2      53.143
2014    9       27    13   7    4.58   571.0    3.2      53.150
2014    9       27    13  12    4.58   570.9    3.2      53.157
2014    9       27    13  18    4.58   570.7    3.2      53.164
2014    9       27    13  23    4.58   570.5    3.2      53.172
2014    9       27    13  29    4.57   570.4    3.2      53.180
2014    9       27    13  34    4.57   570.2    3.3      53.189
2014    9       27    13  40    4.57   570.1    3.3      53.198
2014    9       27    13  45    4.57   569.9    3.3      53.207
2014    9       27    13  51    4.57   569.8    3.3      53.216
2014    9       27    13  56    4.57   569.6    3.3      53.223
2014    9       27    14   2    4.57   569.5    3.3      53.230
2014    9       27    14   7    4.57   569.3    3.3      53.235
2014    9       27    14  13    4.57   569.2    3.3      53.239
2014    9       27    14  18    4.57   569.0    3.3      53.241
2014    9       27    14  24    4.57   568.9    3.3      53.243
2014    9       27    14  29    4.57   568.7    3.3      53.243
2014    9       27    14  35    4.57   568.6    3.3      53.242
2014    9       27    14  40    4.57   568.4    3.3      53.240
2014    9       27    14  46    4.57   568.3    3.3      53.237
2014    9       27    14  51    4.57   568.1    3.3      53.233
2014    9       27    14  57    4.56   568.0    3.3      53.228
2014    9       27    15   2    4.56   567.8    3.3      53.222
2014    9       27    15   8    4.56   567.7    3.3      53.215
2014    9       27    15  13    4.56   567.5    3.3      53.208
2014    9       27    15  19    4.56   567.4    3.3      53.199
2014    9       27    15  24    4.56   567.2    3.3      53.189
2014    9       27    15  30    4.56   567.1    3.3      53.179
2014    9       27    15  35    4.56   566.9    3.3      53.167
2014    9       27    15  41    4.56   566.8    3.3      53.155
2014    9       27    15  46    4.56   566.6    3.3      53.142
2014    9       27    15  52    4.56   566.5    3.3      53.129
2014    9       27    15  57    4.56   566.3    3.3      53.114
2014    9       27    16   3    4.56   566.2    3.3      53.099
2014    9       27    16   8    4.56   566.0    3.3      53.084
2014    9       27    16  13    4.56   565.8    3.3      53.067
2014    9       27    16  19    4.55   565.7    3.3      53.050
2014    9       27    16  24    4.55   565.5    3.3      53.032
2014    9       27    16  30    4.55   565.4    3.3      53.013
2014    9       27    16  35    4.55   565.2    3.3      52.994
2014    9       27    16  41    4.55   565.1    3.3      52.974
2014    9       27    16  46    4.55   564.9    3.3      52.953
2014    9       27    16  52    4.55   564.8    3.3      52.932
2014    9       27    16  57    4.55   564.6    3.3      52.910
2014    9       27    17   3    4.55   564.4    3.3      52.888
2014    9       27    17   8    4.55   564.3    3.3      52.864
2014    9       27    17  14    4.55   564.1    3.3      52.841
2014    9       27    17  19    4.55   564.0    3.3      52.817
2014    9       27    17  25    4.55   563.8    3.3      52.792
2014    9       27    17  30    4.55   563.6    3.3      52.767
2014    9       27    17  36    4.54   563.5    3.3      52.742
2014    9       27    17  41    4.54   563.3    3.3      52.716
2014    9       27    17  47    4.54   563.1    3.3      52.690
2014    9       27    17  52    4.54   563.0    3.3      52.664
2014    9       27    17  58    4.54   562.8    3.3      52.637
2014    9       27    18   3    4.54   562.7    3.3      52.610
2014    9       27    18   9    4.54   562.5    3.3      52.583
2014    9       27    18  14    4.54   562.3    3.3      52.556
2014    9       27    18  20    4.54   562.2    3.3      52.529
2014    9       27    18  25    4.54   562.0    3.3      52.502
2014    9       27    18  31    4.54   561.8    3.3      52.474
2014    9       27    18  36    4.54   561.6    3.3      52.447
2014    9       27    18  42    4.54   561.5    3.3      52.420
2014    9       27    18  47    4.54   561.3    3.3      52.392
2014    9       27    18  52    4.54   561.1    3.3      52.366
2014    9       27    18  58    4.54   561.0    3.3      52.339
2014    9       27    19   3    4.53   560.8    3.3      52.313
2014    9       27    19   9    4.53   560.6    3.3      52.287
2014    9       27    19  14    4.53   560.4    3.3      52.261
2014    9       27    19  20    4.53   560.3    3.3      52.236
2014    9       27    19  25    4.53   560.1    3.3      52.212
2014    9       27    19  31    4.53   559.9    3.3      52.189
2014    9       27    19  36    4.53   559.7    3.3      52.166
2014    9       27    19  42    4.53   559.6    3.3      52.144
2014    9       27    19  47    4.53   559.4    3.3      52.123
2014    9       27    19  53    4.53   559.2    3.3      52.103
2014    9       27    19  58    4.53   559.0    3.3      52.084
2014    9       27    20   4    4.53   558.9    3.3      52.066
2014    9       27    20   9    4.53   558.7    3.3      52.050
2014    9       27    20  15    4.53   558.5    3.3      52.034
2014    9       27    20  20    4.53   558.4    3.3      52.019
2014    9       27    20  26    4.53   558.2    3.3      52.005
2014    9       27    20  31    4.53   558.0    3.3      51.992
2014    9       27    20  37    4.53   557.9    3.3      51.979
2014    9       27    20  42    4.53   557.7    3.3      51.968
2014    9       27    20  48    4.53   557.5    3.3      51.957
2014    9       27    20  53    4.53   557.4    3.3      51.946
2014    9       27    20  59    4.53   557.2    3.3      51.936
2014    9       27    21   4    4.53   557.1    3.3      51.926
2014    9       27    21  10    4.53   556.9    3.3      51.917
2014    9       27    21  15    4.53   556.8    3.3      51.908
2014    9       27    21  21    4.53   556.6    3.3      51.899
2014    9       27    21  26    4.53   556.5    3.3      51.890
2014    9       27    21  32    4.53   556.3    3.3      51.881
2014    9       27    21  37    4.53   556.1    3.3      51.871
2014    9       27    21  43    4.53   556.0    3.3      51.860
2014    9       27    21  48    4.53   555.8    3.3      51.849
2014    9       27    21  54    4.53   555.7    3.3      51.837
2014    9       27    21  59    4.53   555.5    3.3      51.825
2014    9       27    22   5    4.53   555.4    3.3      51.811
2014    9       27    22  10    4.52   555.2    3.3      51.797
2014    9       27    22  15    4.52   555.0    3.3      51.783
2014    9       27    22  21    4.52   554.9    3.4      51.768
2014    9       27    22  26    4.52   554.7    3.4      51.752
2014    9       27    22  32    4.52   554.6    3.4      51.736
2014    9       27    22  37    4.52   554.4    3.4      51.719
2014    9       27    22  43    4.52   554.3    3.4      51.701
2014    9       27    22  48    4.52   554.1    3.4      51.683
2014    9       27    22  54    4.52   554.0    3.4      51.664
2014    9       27    22  59    4.52   553.8    3.4      51.645
2014    9       27    23   5    4.52   553.6    3.4      51.625
2014    9       27    23  10    4.52   553.5    3.4      51.605
2014    9       27    23  16    4.52   553.3    3.4      51.585
2014    9       27    23  21    4.52   553.2    3.4      51.563
2014    9       27    23  27    4.52   553.0    3.4      51.542
2014    9       27    23  32    4.52   552.9    3.4      51.520
2014    9       27    23  38    4.52   552.7    3.4      51.498
2014    9       27    23  43    4.52   552.5    3.4      51.476
2014    9       27    23  49    4.52   552.4    3.4      51.453
2014    9       27    23  54    4.52   552.2    3.4      51.430
2014    9       28     0   0    4.52   552.1    3.4      51.407
2014    9       28     0   5    4.52   551.9    3.4      51.384
2014    9       28     0  11    4.52   551.7    3.4      51.361
2014    9       28     0  16    4.52   551.6    3.4      51.337
2014    9       28     0  22    4.51   551.4    3.4      51.314
2014    9       28     0  27    4.51   551.3    3.4      51.290
2014    9       28     0  33    4.51   551.1    3.4      51.266
2014    9       28     0  38    4.51   550.9    3.4      51.243
2014    9       28     0  44    4.51   550.8    3.4      51.219
2014    9       28     0  49    4.51   550.6    3.4      51.195
2014    9       28     0  55    4.51   550.5    3.4      51.172
2014    9       28     1   0    4.51   550.3    3.4      51.148
2014    9       28     1   5    4.51   550.2    3.4      51.125
2014    9       28     1  11    4.51   550.0    3.4      51.101
2014    9       28     1  16    4.51   549.8    3.4      51.078
2014    9       28     1  22    4.51   549.7    3.4      51.055
2014    9       28     1  27    4.51   549.5    3.4      51.032
2014    9       28     1  33    4.51   549.4    3.4      51.009
2014    9       28     1  38    4.51   549.2    3.4      50.987
2014    9       28     1  44    4.51   549.0    3.4      50.965
2014    9       28     1  49    4.51   548.9    3.4      50.943
2014    9       28     1  55    4.51   548.7    3.4      50.921
2014    9       28     2   0    4.51   548.6    3.5      50.899
2014    9       28     2   6    4.51   548.4    3.5      50.877
2014    9       28     2  11    4.51   548.3    3.5      50.856
2014    9       28     2  17    4.51   548.1    3.5      50.835
2014    9       28     2  22    4.51   548.0    3.5      50.814
2014    9       28     2  28    4.51   547.8    3.5      50.793
2014    9       28     2  33    4.51   547.6    3.5      50.772
2014    9       28     2  39    4.51   547.5    3.5      50.751
2014    9       28     2  44    4.51   547.3    3.5      50.730
2014    9       28     2  50    4.50   547.2    3.5      50.709
2014    9       28     2  55    4.50   547.0    3.5      50.689
2014    9       28     3   1    4.50   546.9    3.5      50.668
2014    9       28     3   6    4.50   546.7    3.5      50.647
2014    9       28     3  12    4.50   546.6    3.5      50.626
2014    9       28     3  17    4.50   546.4    3.5      50.605
2014    9       28     3  23    4.50   546.2    3.5      50.584
2014    9       28     3  28    4.50   546.1    3.5      50.563
2014    9       28     3  34    4.50   545.9    3.5      50.541
2014    9       28     3  39    4.50   545.8    3.5      50.520
2014    9       28     3  45    4.50   545.6    3.5      50.498
2014    9       28     3  50    4.50   545.5    3.5      50.476
2014    9       28     3  56    4.50   545.3    3.5      50.454
2014    9       28     4   1    4.50   545.2    3.5      50.432
2014    9       28     4   7    4.50   545.0    3.5      50.410
2014    9       28     4  12    4.50   544.8    3.5      50.388
2014    9       28     4  18    4.50   544.7    3.5      50.365
2014    9       28     4  23    4.50   544.5    3.5      50.342
2014    9       28     4  29    4.50   544.4    3.5      50.319
2014    9       28     4  34    4.50   544.2    3.5      50.296
2014    9       28     4  40    4.50   544.1    3.5      50.273
2014    9       28     4  45    4.50   543.9    3.5      50.249
2014    9       28     4  50    4.49   543.8    3.5      50.226
2014    9       28     4  56    4.49   543.6    3.5      50.202
2014    9       28     5   1    4.49   543.4    3.5      50.178
2014    9       28     5   7    4.49   543.3    3.5      50.154
2014    9       28     5  12    4.49   543.1    3.5      50.130
2014    9       28     5  18    4.49   543.0    3.5      50.105
2014    9       28     5  23    4.49   542.8    3.5      50.081
2014    9       28     5  29    4.49   542.7    3.5      50.056
2014    9       28     5  34    4.49   542.5    3.5      50.031
2014    9       28     5  40    4.49   542.3    3.5      50.006
2014    9       28     5  45    4.49   542.2    3.5      49.981
2014    9       28     5  51    4.49   542.0    3.5      49.956
2014    9       28     5  56    4.49   541.9    3.5      49.930
2014    9       28     6   2    4.49   541.7    3.5      49.905
2014    9       28     6   7    4.49   541.6    3.5      49.879
2014    9       28     6  13    4.49   541.4    3.5      49.853
2014    9       28     6  18    4.49   541.3    3.5      49.828
2014    9       28     6  24    4.49   541.1    3.5      49.802
2014    9       28     6  29    4.49   540.9    3.5      49.776
2014    9       28     6  35    4.49   540.8    3.6      49.750
2014    9       28     6  40    4.49   540.6    3.6      49.724
2014    9       28     6  46    4.48   540.5    3.6      49.698
2014    9       28     6  51    4.48   540.3    3.6      49.672
2014    9       28     6  57    4.48   540.2    3.6      49.646
2014    9       28     7   2    4.48   540.0    3.6      49.620
2014    9       28     7   8    4.48   539.8    3.6      49.595
2014    9       28     7  13    4.48   539.7    3.6      49.569
2014    9       28     7  19    4.48   539.5    3.6      49.544
2014    9       28     7  24    4.48   539.4    3.6      49.518
2014    9       28     7  30    4.48   539.2    3.6      49.493
2014    9       28     7  35    4.48   539.1    3.6      49.468
2014    9       28     7  41    4.48   538.9    3.6      49.443
2014    9       28     7  46    4.48   538.8    3.6      49.417
2014    9       28     7  52    4.48   538.6    3.6      49.393
2014    9       28     7  57    4.48   538.4    3.6      49.368
2014    9       28     8   2    4.48   538.3    3.6      49.343
2014    9       28     8   8    4.48   538.1    3.6      49.318
2014    9       28     8  13    4.48   538.0    3.6      49.294
2014    9       28     8  19    4.48   537.8    3.6      49.269
2014    9       28     8  24    4.47   537.7    3.6      49.245
2014    9       28     8  30    4.47   537.5    3.6      49.220
2014    9       28     8  35    4.47   537.4    3.6      49.196
2014    9       28     8  41    4.47   537.2    3.6      49.172
2014    9       28     8  46    4.47   537.1    3.6      49.147
2014    9       28     8  52    4.47   536.9    3.6      49.123
2014    9       28     8  57    4.47   536.8    3.6      49.098
2014    9       28     9   3    4.47   536.6    3.6      49.074
2014    9       28     9   8    4.47   536.4    3.6      49.049
2014    9       28     9  14    4.47   536.3    3.6      49.025
2014    9       28     9  19    4.47   536.1    3.6      49.000
2014    9       28     9  25    4.47   536.0    3.6      48.975
2014    9       28     9  30    4.47   535.8    3.6      48.951
2014    9       28     9  36    4.47   535.7    3.6      48.926
2014    9       28     9  41    4.47   535.5    3.6      48.901
2014    9       28     9  47    4.46   535.4    3.6      48.877
2014    9       28     9  52    4.46   535.2    3.6      48.852
2014    9       28     9  58    4.46   535.1    3.6      48.827
2014    9       28    10   3    4.46   534.9    3.6      48.803
2014    9       28    10   9    4.46   534.7    3.6      48.778
2014    9       28    10  14    4.46   534.6    3.6      48.753
2014    9       28    10  20    4.46   534.4    3.6      48.729
2014    9       28    10  25    4.46   534.3    3.6      48.705
2014    9       28    10  31    4.46   534.1    3.6      48.680
2014    9       28    10  36    4.46   534.0    3.6      48.656
2014    9       28    10  42    4.46   533.8    3.6      48.633
2014    9       28    10  47    4.46   533.6    3.6      48.609
2014    9       28    10  53    4.46   533.5    3.6      48.586
2014    9       28    10  58    4.46   533.3    3.6      48.563
2014    9       28    11   4    4.46   533.2    3.6      48.540
2014    9       28    11   9    4.46   533.0    3.6      48.517
2014    9       28    11  15    4.45   532.9    3.6      48.495
2014    9       28    11  20    4.45   532.7    3.6      48.473
2014    9       28    11  26    4.45   532.6    3.6      48.451
2014    9       28    11  31    4.45   532.4    3.6      48.430
2014    9       28    11  37    4.45   532.2    3.6      48.409
2014    9       28    11  42    4.45   532.1    3.6      48.388
2014    9       28    11  47    4.45   531.9    3.6      48.368
2014    9       28    11  53    4.45   531.8    3.6      48.348
2014    9       28    11  58    4.45   531.6    3.6      48.328
2014    9       28    12   4    4.45   531.5    3.6      48.308
2014    9       28    12   9    4.45   531.3    3.6      48.289
2014    9       28    12  15    4.45   531.2    3.6      48.270
2014    9       28    12  20    4.45   531.0    3.6      48.251
2014    9       28    12  26    4.45   530.9    3.6      48.232
2014    9       28    12  31    4.45   530.7    3.6      48.214
2014    9       28    12  37    4.45   530.5    3.6      48.195
2014    9       28    12  42    4.44   530.4    3.7      48.176
2014    9       28    12  48    4.44   530.2    3.7      48.158
2014    9       28    12  53    4.44   530.1    3.7      48.140
2014    9       28    12  59    4.44   529.9    3.7      48.121
2014    9       28    13   4    4.44   529.8    3.7      48.103
2014    9       28    13  10    4.44   529.6    3.7      48.084
2014    9       28    13  15    4.44   529.5    3.7      48.066
2014    9       28    13  21    4.44   529.3    3.7      48.047
2014    9       28    13  26    4.44   529.1    3.7      48.029
2014    9       28    13  32    4.44   529.0    3.7      48.010
2014    9       28    13  37    4.44   528.8    3.7      47.991
2014    9       28    13  43    4.44   528.7    3.7      47.972
2014    9       28    13  48    4.44   528.5    3.7      47.953
2014    9       28    13  54    4.43   528.4    3.7      47.934
2014    9       28    13  59    4.43   528.2    3.7      47.914
2014    9       28    14   5    4.43   528.0    3.7      47.895
2014    9       28    14  10    4.43   527.9    3.7      47.875
2014    9       28    14  16    4.43   527.7    3.7      47.855
2014    9       28    14  21    4.43   527.6    3.7      47.834
2014    9       28    14  27    4.43   527.4    3.7      47.814
2014    9       28    14  32    4.43   527.2    3.7      47.793
2014    9       28    14  38    4.43   527.1    3.7      47.772
2014    9       28    14  43    4.43   526.9    3.7      47.751
2014    9       28    14  49    4.43   526.8    3.7      47.730
2014    9       28    14  54    4.43   526.6    3.7      47.709
2014    9       28    15   0    4.43   526.4    3.7      47.687
2014    9       28    15   5    4.42   526.3    3.7      47.665
2014    9       28    15  10    4.42   526.1    3.7      47.643
2014    9       28    15  16    4.42   526.0    3.7      47.621
2014    9       28    15  21    4.42   525.8    3.7      47.598
2014    9       28    15  27    4.42   525.6    3.7      47.576
2014    9       28    15  32    4.42   525.5    3.7      47.553
2014    9       28    15  38    4.42   525.3    3.7      47.530
2014    9       28    15  43    4.42   525.2    3.7      47.507
2014    9       28    15  49    4.42   525.0    3.7      47.484
2014    9       28    15  54    4.42   524.8    3.7      47.460
2014    9       28    16   0    4.42   524.7    3.7      47.437
2014    9       28    16   5    4.42   524.5    3.7      47.413
2014    9       28    16  11    4.42   524.4    3.7      47.389
2014    9       28    16  16    4.41   524.2    3.7      47.365
2014    9       28    16  22    4.41   524.0    3.7      47.341
2014    9       28    16  27    4.41   523.9    3.7      47.317
2014    9       28    16  33    4.41   523.7    3.7      47.293
2014    9       28    16  38    4.41   523.6    3.7      47.268
2014    9       28    16  44    4.41   523.4    3.7      47.244
2014    9       28    16  49    4.41   523.2    3.7      47.219
2014    9       28    16  55    4.41   523.1    3.7      47.194
2014    9       28    17   0    4.41   522.9    3.7      47.170
2014    9       28    17   6    4.41   522.8    3.7      47.145
2014    9       28    17  11    4.41   522.6    3.7      47.120
2014    9       28    17  17    4.41   522.4    3.7      47.095
2014    9       28    17  22    4.41   522.3    3.7      47.071
2014    9       28    17  28    4.40   522.1    3.7      47.045
2014    9       28    17  33    4.40   522.0    3.7      47.021
2014    9       28    17  39    4.40   521.8    3.7      46.995
2014    9       28    17  44    4.40   521.6    3.7      46.971
2014    9       28    17  50    4.40   521.5    3.7      46.946
2014    9       28    17  55    4.40   521.3    3.7      46.920
2014    9       28    18   1    4.40   521.2    3.7      46.895
2014    9       28    18   6    4.40   521.0    3.7      46.870
2014    9       28    18  12    4.40   520.8    3.7      46.846
2014    9       28    18  17    4.40   520.7    3.7      46.821
2014    9       28    18  23    4.40   520.5    3.7      46.796
2014    9       28    18  28    4.40   520.4    3.7      46.771
2014    9       28    18  34    4.39   520.2    3.7      46.746
2014    9       28    18  39    4.39   520.0    3.7      46.722
2014    9       28    18  45    4.39   519.9    3.7      46.698
2014    9       28    18  50    4.39   519.7    3.7      46.674
2014    9       28    18  56    4.39   519.5    3.7      46.650
2014    9       28    19   1    4.39   519.4    3.7      46.627
2014    9       28    19   7    4.39   519.2    3.7      46.603
2014    9       28    19  12    4.39   519.1    3.7      46.580
2014    9       28    19  17    4.39   518.9    3.7      46.557
2014    9       28    19  23    4.39   518.7    3.7      46.535
2014    9       28    19  28    4.39   518.6    3.7      46.513
2014    9       28    19  34    4.39   518.4    3.7      46.491
2014    9       28    19  39    4.38   518.3    3.7      46.470
2014    9       28    19  45    4.38   518.1    3.7      46.449
2014    9       28    19  50    4.38   518.0    3.7      46.428
2014    9       28    19  56    4.38   517.8    3.7      46.407
2014    9       28    20   1    4.38   517.6    3.8      46.387
2014    9       28    20   7    4.38   517.5    3.8      46.367
2014    9       28    20  12    4.38   517.3    3.8      46.347
2014    9       28    20  18    4.38   517.2    3.8      46.327
2014    9       28    20  23    4.38   517.0    3.8      46.307
2014    9       28    20  29    4.38   516.9    3.8      46.288
2014    9       28    20  34    4.38   516.7    3.8      46.269
2014    9       28    20  40    4.38   516.5    3.8      46.249
2014    9       28    20  45    4.37   516.4    3.8      46.230
2014    9       28    20  51    4.37   516.2    3.8      46.211
2014    9       28    20  56    4.37   516.1    3.8      46.192
2014    9       28    21   2    4.37   515.9    3.8      46.173
2014    9       28    21   7    4.37   515.7    3.8      46.154
2014    9       28    21  13    4.37   515.6    3.8      46.136
2014    9       28    21  18    4.37   515.4    3.8      46.117
2014    9       28    21  24    4.37   515.3    3.8      46.098
2014    9       28    21  29    4.37   515.1    3.8      46.079
2014    9       28    21  35    4.37   514.9    3.8      46.061
2014    9       28    21  40    4.37   514.8    3.8      46.042
2014    9       28    21  46    4.37   514.6    3.8      46.023
2014    9       28    21  51    4.36   514.5    3.8      46.005
2014    9       28    21  57    4.36   514.3    3.8      45.986
2014    9       28    22   2    4.36   514.1    3.8      45.968
2014    9       28    22   8    4.36   514.0    3.8      45.949
2014    9       28    22  13    4.36   513.8    3.8      45.930
2014    9       28    22  19    4.36   513.6    3.8      45.911
2014    9       28    22  24    4.36   513.5    3.8      45.892
2014    9       28    22  30    4.36   513.3    3.8      45.873
2014    9       28    22  35    4.36   513.2    3.8      45.854
2014    9       28    22  41    4.36   513.0    3.8      45.835
2014    9       28    22  46    4.36   512.8    3.8      45.816
2014    9       28    22  51    4.35   512.7    3.8      45.796
2014    9       28    22  57    4.35   512.5    3.8      45.777
2014    9       28    23   2    4.35   512.3    3.8      45.757
2014    9       28    23   8    4.35   512.2    3.8      45.737
2014    9       28    23  13    4.35   512.0    3.8      45.718
2014    9       28    23  19    4.35   511.8    3.8      45.698
2014    9       28    23  24    4.35   511.7    3.8      45.678
2014    9       28    23  30    4.35   511.5    3.8      45.658
2014    9       28    23  35    4.35   511.3    3.8      45.637
2014    9       28    23  41    4.35   511.2    3.8      45.617
2014    9       28    23  46    4.34   511.0    3.8      45.597
2014    9       28    23  52    4.34   510.8    3.8      45.576
2014    9       28    23  57    4.34   510.7    3.8      45.555
2014    9       29     0   3    4.34   510.5    3.8      45.535
2014    9       29     0   8    4.34   510.3    3.8      45.514
2014    9       29     0  14    4.34   510.2    3.8      45.493
2014    9       29     0  19    4.34   510.0    3.8      45.472
2014    9       29     0  25    4.34   509.8    3.8      45.450
2014    9       29     0  30    4.34   509.7    3.8      45.429
2014    9       29     0  36    4.34   509.5    3.8      45.408
2014    9       29     0  41    4.33   509.3    3.8      45.386
2014    9       29     0  47    4.33   509.1    3.8      45.364
2014    9       29     0  52    4.33   509.0    3.8      45.343
2014    9       29     0  58    4.33   508.8    3.8      45.321
2014    9       29     1   3    4.33   508.6    3.8      45.299
2014    9       29     1   9    4.33   508.5    3.8      45.277
2014    9       29     1  14    4.33   508.3    3.8      45.255
2014    9       29     1  20    4.33   508.1    3.8      45.233
2014    9       29     1  25    4.33   507.9    3.8      45.211
2014    9       29     1  31    4.33   507.8    3.8      45.189
2014    9       29     1  36    4.32   507.6    3.8      45.166
2014    9       29     1  42    4.32   507.4    3.8      45.144
2014    9       29     1  47    4.32   507.3    3.8      45.122
2014    9       29     1  53    4.32   507.1    3.8      45.100
2014    9       29     1  58    4.32   506.9    3.8      45.078
2014    9       29     2   4    4.32   506.7    3.8      45.056
2014    9       29     2   9    4.32   506.6    3.8      45.035
2014    9       29     2  15    4.32   506.4    3.8      45.013
2014    9       29     2  20    4.32   506.2    3.8      44.991
2014    9       29     2  26    4.32   506.0    3.8      44.970
2014    9       29     2  31    4.31   505.9    3.8      44.949
2014    9       29     2  37    4.31   505.7    3.8      44.927
2014    9       29     2  42    4.31   505.5    3.8      44.906
2014    9       29     2  48    4.31   505.4    3.8      44.885
2014    9       29     2  53    4.31   505.2    3.8      44.864
2014    9       29     2  59    4.31   505.0    3.8      44.844
2014    9       29     3   4    4.31   504.8    3.8      44.823
2014    9       29     3  10    4.31   504.7    3.8      44.803
2014    9       29     3  15    4.31   504.5    3.8      44.783
2014    9       29     3  20    4.31   504.3    3.8      44.763
2014    9       29     3  26    4.31   504.2    3.8      44.743
2014    9       29     3  31    4.30   504.0    3.8      44.723
2014    9       29     3  37    4.30   503.8    3.8      44.704
2014    9       29     3  42    4.30   503.7    3.8      44.684
2014    9       29     3  48    4.30   503.5    3.8      44.665
2014    9       29     3  53    4.30   503.3    3.8      44.645
2014    9       29     3  59    4.30   503.1    3.8      44.626
2014    9       29     4   4    4.30   503.0    3.9      44.607
2014    9       29     4  10    4.30   502.8    3.9      44.588
2014    9       29     4  15    4.30   502.6    3.9      44.569
2014    9       29     4  21    4.30   502.5    3.9      44.550
2014    9       29     4  26    4.30   502.3    3.9      44.531
2014    9       29     4  32    4.29   502.1    3.9      44.511
2014    9       29     4  37    4.29   502.0    3.9      44.492
2014    9       29     4  43    4.29   501.8    3.9      44.473
2014    9       29     4  48    4.29   501.6    3.9      44.453
2014    9       29     4  54    4.29   501.5    3.9      44.434
2014    9       29     4  59    4.29   501.3    3.9      44.414
2014    9       29     5   5    4.29   501.1    3.9      44.394
2014    9       29     5  10    4.29   500.9    3.9      44.374
2014    9       29     5  16    4.29   500.8    3.9      44.354
2014    9       29     5  21    4.29   500.6    3.9      44.334
2014    9       29     5  27    4.28   500.4    3.9      44.314
2014    9       29     5  32    4.28   500.3    3.9      44.293
2014    9       29     5  38    4.28   500.1    3.9      44.273
2014    9       29     5  43    4.28   499.9    3.9      44.252
2014    9       29     5  49    4.28   499.7    3.9      44.231
2014    9       29     5  54    4.28   499.6    3.9      44.210
2014    9       29     6   0    4.28   499.4    3.9      44.189
2014    9       29     6   5    4.28   499.2    3.9      44.167
2014    9       29     6  11    4.28   499.1    3.9      44.146
2014    9       29     6  16    4.28   498.9    3.9      44.125
2014    9       29     6  22    4.27   498.7    3.9      44.104
2014    9       29     6  27    4.27   498.5    3.9      44.083
2014    9       29     6  33    4.27   498.4    3.9      44.061
2014    9       29     6  38    4.27   498.2    3.9      44.040
2014    9       29     6  44    4.27   498.0    3.9      44.019
2014    9       29     6  49    4.27   497.8    3.9      43.998
2014    9       29     6  54    4.27   497.7    3.9      43.977
2014    9       29     7   0    4.27   497.5    3.9      43.956
2014    9       29     7   5    4.27   497.3    3.9      43.935
2014    9       29     7  11    4.27   497.1    3.9      43.915
2014    9       29     7  16    4.27   497.0    3.9      43.894
2014    9       29     7  22    4.27   496.8    3.9      43.874
2014    9       29     7  27    4.27   496.6    3.9      43.854
2014    9       29     7  33    4.26   496.4    3.9      43.835
2014    9       29     7  38    4.26   496.3    3.9      43.815
2014    9       29     7  44    4.26   496.1    3.9      43.796
2014    9       29     7  49    4.26   495.9    3.9      43.777
2014    9       29     7  55    4.26   495.7    3.9      43.759
2014    9       29     8   0    4.26   495.6    3.9      43.740
2014    9       29     8   6    4.26   495.4    3.9      43.722
2014    9       29     8  11    4.26   495.2    3.9      43.705
2014    9       29     8  17    4.26   495.0    3.9      43.687
2014    9       29     8  22    4.26   494.9    3.9      43.670
2014    9       29     8  28    4.26   494.7    3.9      43.653
2014    9       29     8  33    4.26   494.5    3.9      43.636
2014    9       29     8  39    4.26   494.4    3.9      43.620
2014    9       29     8  44    4.26   494.2    3.9      43.603
2014    9       29     8  50    4.26   494.0    3.9      43.587
2014    9       29     8  55    4.26   493.8    3.9      43.571
2014    9       29     9   1    4.26   493.7    3.9      43.555
2014    9       29     9   6    4.26   493.5    3.9      43.540
2014    9       29     9  12    4.26   493.3    3.9      43.524
2014    9       29     9  17    4.26   493.1    3.9      43.509
2014    9       29     9  23    4.26   493.0    3.9      43.493
2014    9       29     9  28    4.26   492.8    3.9      43.478
2014    9       29     9  34    4.26   492.6    3.9      43.463
2014    9       29     9  39    4.25   492.5    3.9      43.447
2014    9       29     9  45    4.25   492.3    3.9      43.432
2014    9       29     9  50    4.25   492.1    3.9      43.417
2014    9       29     9  56    4.25   491.9    3.9      43.402
2014    9       29    10   1    4.25   491.8    4.0      43.387
2014    9       29    10   7    4.25   491.6    4.0      43.371
2014    9       29    10  12    4.25   491.4    4.0      43.356
2014    9       29    10  18    4.25   491.3    4.0      43.341
2014    9       29    10  23    4.25   491.1    4.0      43.325
2014    9       29    10  29    4.25   490.9    4.0      43.310
2014    9       29    10  34    4.25   490.7    4.0      43.294
2014    9       29    10  40    4.25   490.6    4.0      43.279
2014    9       29    10  45    4.25   490.4    4.0      43.263
2014    9       29    10  51    4.25   490.2    4.0      43.247
2014    9       29    10  56    4.25   490.1    4.0      43.231
2014    9       29    11   2    4.25   489.9    4.0      43.215
2014    9       29    11   7    4.25   489.7    4.0      43.199
2014    9       29    11  13    4.25   489.5    4.0      43.182
2014    9       29    11  18    4.25   489.4    4.0      43.166
2014    9       29    11  24    4.25   489.2    4.0      43.149
2014    9       29    11  29    4.25   489.0    4.0      43.133
2014    9       29    11  35    4.25   488.9    4.0      43.116
2014    9       29    11  40    4.25   488.7    4.0      43.099
2014    9       29    11  46    4.25   488.5    4.0      43.082
2014    9       29    11  51    4.25   488.4    4.0      43.065
2014    9       29    11  56    4.25   488.2    4.0      43.048
2014    9       29    12   2    4.25   488.0    4.0      43.030
2014    9       29    12   7    4.25   487.8    4.0      43.013
2014    9       29    12  13    4.25   487.7    4.0      42.995
2014    9       29    12  18    4.25   487.5    4.0      42.978
2014    9       29    12  24    4.25   487.3    4.0      42.960
2014    9       29    12  29    4.25   487.2    4.0      42.943
2014    9       29    12  35    4.25   487.0    4.0      42.925
2014    9       29    12  40    4.25   486.8    4.0      42.907
2014    9       29    12  46    4.25   486.7    4.0      42.889
2014    9       29    12  51    4.25   486.5    4.0      42.872
2014    9       29    12  57    4.25   486.3    4.0      42.854
2014    9       29    13   2    4.25   486.1    4.0      42.836
2014    9       29    13   8    4.25   486.0    4.0      42.818
2014    9       29    13  13    4.25   485.8    4.0      42.800
2014    9       29    13  19    4.25   485.6    4.0      42.782
2014    9       29    13  24    4.25   485.5    4.0      42.764
2014    9       29    13  30    4.25   485.3    4.0      42.747
2014    9       29    13  35    4.25   485.1    4.0      42.729
2014    9       29    13  41    4.26   485.0    4.0      42.711
2014    9       29    13  46    4.26   484.8    4.0      42.693
2014    9       29    13  52    4.26   484.6    4.0      42.675
2014    9       29    13  57    4.26   484.4    4.0      42.658
2014    9       29    14   3    4.26   484.3    4.0      42.640
2014    9       29    14   8    4.26   484.1    4.0      42.622
2014    9       29    14  14    4.26   483.9    4.0      42.605
2014    9       29    14  19    4.26   483.8    4.0      42.587
2014    9       29    14  25    4.26   483.6    4.0      42.569
2014    9       29    14  30    4.26   483.4    4.0      42.551
2014    9       29    14  36    4.26   483.3    4.0      42.534
2014    9       29    14  41    4.26   483.1    4.0      42.516
2014    9       29    14  47    4.26   482.9    4.0      42.498
2014    9       29    14  52    4.26   482.8    4.0      42.480
2014    9       29    14  58    4.26   482.6    4.1      42.462
2014    9       29    15   3    4.26   482.4    4.1      42.444
2014    9       29    15   9    4.26   482.3    4.1      42.426
2014    9       29    15  14    4.26   482.1    4.1      42.407
2014    9       29    15  20    4.26   481.9    4.1      42.389
2014    9       29    15  25    4.26   481.7    4.1      42.370
2014    9       29    15  30    4.26   481.6    4.1      42.351
2014    9       29    15  36    4.26   481.4    4.1      42.332
2014    9       29    15  41    4.26   481.2    4.1      42.312
2014    9       29    15  47    4.26   481.1    4.1      42.293
2014    9       29    15  52    4.26   480.9    4.1      42.273
2014    9       29    15  58    4.26   480.7    4.1      42.253
2014    9       29    16   3    4.26   480.6    4.1      42.233
2014    9       29    16   9    4.26   480.4    4.1      42.213
2014    9       29    16  14    4.27   480.2    4.1      42.192
2014    9       29    16  20    4.27   480.0    4.1      42.172
2014    9       29    16  25    4.27   479.9    4.1      42.151
2014    9       29    16  31    4.27   479.7    4.1      42.129
2014    9       29    16  36    4.27   479.5    4.1      42.108
2014    9       29    16  42    4.27   479.4    4.1      42.087
2014    9       29    16  47    4.27   479.2    4.1      42.065
2014    9       29    16  53    4.27   479.0    4.1      42.043
2014    9       29    16  58    4.27   478.8    4.1      42.021
2014    9       29    17   4    4.27   478.7    4.1      41.999
2014    9       29    17   9    4.27   478.5    4.1      41.977
2014    9       29    17  15    4.27   478.3    4.1      41.954
2014    9       29    17  20    4.27   478.1    4.1      41.931
2014    9       29    17  26    4.27   478.0    4.1      41.909
2014    9       29    17  31    4.27   477.8    4.1      41.886
2014    9       29    17  37    4.27   477.6    4.1      41.863
2014    9       29    17  42    4.27   477.4    4.1      41.840
2014    9       29    17  48    4.27   477.2    4.1      41.817
2014    9       29    17  53    4.27   477.1    4.1      41.794
2014    9       29    17  59    4.27   476.9    4.1      41.770
2014    9       29    18   4    4.27   476.7    4.1      41.747
2014    9       29    18  10    4.27   476.5    4.1      41.723
2014    9       29    18  15    4.27   476.4    4.1      41.700
2014    9       29    18  21    4.27   476.2    4.1      41.676
2014    9       29    18  26    4.27   476.0    4.1      41.652
2014    9       29    18  32    4.27   475.8    4.1      41.628
2014    9       29    18  37    4.27   475.6    4.1      41.604
2014    9       29    18  43    4.27   475.5    4.1      41.579
2014    9       29    18  48    4.27   475.3    4.1      41.555
2014    9       29    18  54    4.27   475.1    4.1      41.530
2014    9       29    18  59    4.27   474.9    4.1      41.506
2014    9       29    19   5    4.27   474.7    4.1      41.481
2014    9       29    19  10    4.27   474.6    4.1      41.456
2014    9       29    19  16    4.27   474.4    4.1      41.431
2014    9       29    19  21    4.27   474.2    4.2      41.405
2014    9       29    19  27    4.27   474.0    4.2      41.380
2014    9       29    19  32    4.27   473.8    4.2      41.354
2014    9       29    19  38    4.27   473.6    4.2      41.328
2014    9       29    19  43    4.27   473.4    4.2      41.303
2014    9       29    19  49    4.27   473.3    4.2      41.276
2014    9       29    19  54    4.27   473.1    4.2      41.250
2014    9       29    20   0    4.27   472.9    4.2      41.224
2014    9       29    20   5    4.27   472.7    4.2      41.198
2014    9       29    20  11    4.27   472.5    4.2      41.171
2014    9       29    20  16    4.27   472.3    4.2      41.145
2014    9       29    20  21    4.27   472.1    4.2      41.118
2014    9       29    20  27    4.27   471.9    4.2      41.092
2014    9       29    20  32    4.27   471.8    4.2      41.065
2014    9       29    20  38    4.27   471.6    4.2      41.039
2014    9       29    20  43    4.27   471.4    4.2      41.012
2014    9       29    20  49    4.27   471.2    4.2      40.986
2014    9       29    20  54    4.27   471.0    4.2      40.959
2014    9       29    21   0    4.27   470.8    4.2      40.933
2014    9       29    21   5    4.27   470.6    4.2      40.907
2014    9       29    21  11    4.26   470.4    4.2      40.880
2014    9       29    21  16    4.26   470.2    4.2      40.854
2014    9       29    21  22    4.26   470.0    4.2      40.828
2014    9       29    21  27    4.26   469.9    4.2      40.802
2014    9       29    21  33    4.26   469.7    4.2      40.776
2014    9       29    21  38    4.26   469.5    4.2      40.751
2014    9       29    21  44    4.26   469.3    4.2      40.725
2014    9       29    21  49    4.26   469.1    4.2      40.699
2014    9       29    21  55    4.26   468.9    4.2      40.674
2014    9       29    22   0    4.26   468.7    4.2      40.649
2014    9       29    22   6    4.26   468.5    4.2      40.623
2014    9       29    22  11    4.26   468.3    4.2      40.598
2014    9       29    22  17    4.26   468.1    4.2      40.573
2014    9       29    22  22    4.26   468.0    4.2      40.548
2014    9       29    22  28    4.26   467.8    4.2      40.523
2014    9       29    22  33    4.26   467.6    4.2      40.498
2014    9       29    22  39    4.26   467.4    4.2      40.473
2014    9       29    22  44    4.26   467.2    4.2      40.449
2014    9       29    22  50    4.26   467.0    4.2      40.424
2014    9       29    22  55    4.26   466.8    4.2      40.399
2014    9       29    23   1    4.26   466.6    4.2      40.374
2014    9       29    23   6    4.26   466.4    4.2      40.349
2014    9       29    23  12    4.26   466.3    4.2      40.325
2014    9       29    23  17    4.26   466.1    4.2      40.300
2014    9       29    23  23    4.26   465.9    4.2      40.275
2014    9       29    23  28    4.26   465.7    4.2      40.250
2014    9       29    23  34    4.26   465.5    4.2      40.225
2014    9       29    23  39    4.26   465.3    4.2      40.200
2014    9       29    23  45    4.26   465.1    4.2      40.176
2014    9       29    23  50    4.26   464.9    4.2      40.151
2014    9       29    23  56    4.26   464.7    4.3      40.126
2014    9       30     0   1    4.26   464.6    4.3      40.101
2014    9       30     0   7    4.26   464.4    4.3      40.077
2014    9       30     0  12    4.26   464.2    4.3      40.052
2014    9       30     0  18    4.26   464.0    4.3      40.027
2014    9       30     0  23    4.26   463.8    4.3      40.002
2014    9       30     0  29    4.26   463.6    4.3      39.977
2014    9       30     0  34    4.26   463.4    4.3      39.953
2014    9       30     0  40    4.26   463.2    4.3      39.928
2014    9       30     0  45    4.26   463.1    4.3      39.903
2014    9       30     0  51    4.26   462.9    4.3      39.879
2014    9       30     0  56    4.26   462.7    4.3      39.854
2014    9       30     1   2    4.26   462.5    4.3      39.830
2014    9       30     1   7    4.25   462.3    4.3      39.805
2014    9       30     1  13    4.25   462.1    4.3      39.781
2014    9       30     1  18    4.25   461.9    4.3      39.757
2014    9       30     1  23    4.25   461.7    4.3      39.733
2014    9       30     1  29    4.25   461.6    4.3      39.709
2014    9       30     1  34    4.25   461.4    4.3      39.685
2014    9       30     1  40    4.25   461.2    4.3      39.661
2014    9       30     1  45    4.25   461.0    4.3      39.637
2014    9       30     1  51    4.25   460.8    4.3      39.613
2014    9       30     1  56    4.25   460.6    4.3      39.590
2014    9       30     2   2    4.25   460.4    4.3      39.566
2014    9       30     2   7    4.25   460.2    4.3      39.543
2014    9       30     2  13    4.25   460.1    4.3      39.519
2014    9       30     2  18    4.25   459.9    4.3      39.496
2014    9       30     2  24    4.25   459.7    4.3      39.473
2014    9       30     2  29    4.25   459.5    4.3      39.450
2014    9       30     2  35    4.25   459.3    4.3      39.427
2014    9       30     2  40    4.25   459.1    4.3      39.405
2014    9       30     2  46    4.25   458.9    4.3      39.382
2014    9       30     2  51    4.25   458.7    4.3      39.359
2014    9       30     2  57    4.25   458.6    4.3      39.337
2014    9       30     3   2    4.25   458.4    4.3      39.315
2014    9       30     3   8    4.25   458.2    4.3      39.292
2014    9       30     3  13    4.25   458.0    4.3      39.270
2014    9       30     3  19    4.25   457.8    4.3      39.248
2014    9       30     3  24    4.25   457.6    4.3      39.226
2014    9       30     3  30    4.25   457.4    4.3      39.203
2014    9       30     3  35    4.25   457.3    4.3      39.181
2014    9       30     3  41    4.25   457.1    4.3      39.159
2014    9       30     3  46    4.25   456.9    4.4      39.138
2014    9       30     3  52    4.25   456.7    4.4      39.115
2014    9       30     3  57    4.25   456.5    4.4      39.094
2014    9       30     4   3    4.24   456.3    4.4      39.072
2014    9       30     4   8    4.24   456.1    4.4      39.050
2014    9       30     4  14    4.24   456.0    4.4      39.028
2014    9       30     4  19    4.24   455.8    4.4      39.006
2014    9       30     4  25    4.24   455.6    4.4      38.984
2014    9       30     4  30    4.24   455.4    4.4      38.962
2014    9       30     4  36    4.24   455.2    4.4      38.940
2014    9       30     4  41    4.24   455.0    4.4      38.918
2014    9       30     4  47    4.24   454.8    4.4      38.896
2014    9       30     4  52    4.24   454.6    4.4      38.874
2014    9       30     4  58    4.24   454.5    4.4      38.852
2014    9       30     5   3    4.24   454.3    4.4      38.830
2014    9       30     5   8    4.24   454.1    4.4      38.807
2014    9       30     5  14    4.24   453.9    4.4      38.785
2014    9       30     5  19    4.24   453.7    4.4      38.763
2014    9       30     5  25    4.24   453.5    4.4      38.740
2014    9       30     5  30    4.24   453.3    4.4      38.718
2014    9       30     5  36    4.24   453.2    4.4      38.696
2014    9       30     5  41    4.24   453.0    4.4      38.673
2014    9       30     5  47    4.24   452.8    4.4      38.650
2014    9       30     5  52    4.24   452.6    4.4      38.628
2014    9       30     5  58    4.24   452.4    4.4      38.605
2014    9       30     6   3    4.24   452.2    4.4      38.582
2014    9       30     6   9    4.24   452.0    4.4      38.560
2014    9       30     6  14    4.24   451.8    4.4      38.537
2014    9       30     6  20    4.24   451.6    4.4      38.514
2014    9       30     6  25    4.24   451.5    4.4      38.491
2014    9       30     6  31    4.24   451.3    4.4      38.468
2014    9       30     6  36    4.24   451.1    4.4      38.446
2014    9       30     6  42    4.24   450.9    4.4      38.423
2014    9       30     6  47    4.24   450.7    4.4      38.400
2014    9       30     6  53    4.23   450.5    4.4      38.377
2014    9       30     6  58    4.23   450.3    4.4      38.355
2014    9       30     7   4    4.23   450.1    4.4      38.332
2014    9       30     7   9    4.23   449.9    4.4      38.309
2014    9       30     7  15    4.23   449.8    4.4      38.287
2014    9       30     7  20    4.23   449.6    4.5      38.264
2014    9       30     7  26    4.23   449.4    4.5      38.242
2014    9       30     7  31    4.23   449.2    4.5      38.219
2014    9       30     7  37    4.23   449.0    4.5      38.197
2014    9       30     7  42    4.23   448.8    4.5      38.175
2014    9       30     7  48    4.23   448.6    4.5      38.152
2014    9       30     7  53    4.23   448.4    4.5      38.130
2014    9       30     7  59    4.23   448.2    4.5      38.108
2014    9       30     8   4    4.23   448.1    4.5      38.086
2014    9       30     8  10    4.23   447.9    4.5      38.064
2014    9       30     8  15    4.23   447.7    4.5      38.042
2014    9       30     8  21    4.23   447.5    4.5      38.020
2014    9       30     8  26    4.23   447.3    4.5      37.999
2014    9       30     8  32    4.23   447.1    4.5      37.977
2014    9       30     8  37    4.23   446.9    4.5      37.956
2014    9       30     8  43    4.23   446.7    4.5      37.934
2014    9       30     8  48    4.23   446.6    4.5      37.913
2014    9       30     8  54    4.23   446.4    4.5      37.891
2014    9       30     8  59    4.23   446.2    4.5      37.870
2014    9       30     9   5    4.23   446.0    4.5      37.849
2014    9       30     9  10    4.23   445.8    4.5      37.828
2014    9       30     9  16    4.23   445.6    4.5      37.807
2014    9       30     9  21    4.23   445.4    4.5      37.786
2014    9       30     9  27    4.23   445.2    4.5      37.765
2014    9       30     9  32    4.23   445.1    4.5      37.744
2014    9       30     9  38    4.23   444.9    4.5      37.723
2014    9       30     9  43    4.23   444.7    4.5      37.702
2014    9       30     9  49    4.23   444.5    4.5      37.682
2014    9       30     9  54    4.23   444.3    4.5      37.661
2014    9       30    10   0    4.23   444.1    4.5      37.641
2014    9       30    10   5    4.23   443.9    4.5      37.620
2014    9       30    10  11    4.23   443.8    4.5      37.600
2014    9       30    10  16    4.23   443.6    4.6      37.579
2014    9       30    10  21    4.23   443.4    4.6      37.559
2014    9       30    10  27    4.23   443.2    4.6      37.539
2014    9       30    10  32    4.23   443.0    4.6      37.519
2014    9       30    10  38    4.23   442.8    4.6      37.499
2014    9       30    10  43    4.23   442.6    4.6      37.479
2014    9       30    10  49    4.23   442.5    4.6      37.459
2014    9       30    10  54    4.23   442.3    4.6      37.440
2014    9       30    11   0    4.23   442.1    4.6      37.420
2014    9       30    11   5    4.23   441.9    4.6      37.401
2014    9       30    11  11    4.23   441.7    4.6      37.381
2014    9       30    11  16    4.23   441.5    4.6      37.362
2014    9       30    11  22    4.23   441.4    4.6      37.343
2014    9       30    11  27    4.23   441.2    4.6      37.323
2014    9       30    11  33    4.23   441.0    4.6      37.304
2014    9       30    11  38    4.23   440.8    4.6      37.285
2014    9       30    11  44    4.22   440.6    4.6      37.266
2014    9       30    11  49    4.22   440.4    4.6      37.248
2014    9       30    11  55    4.22   440.2    4.6      37.229
2014    9       30    12   0    4.22   440.1    4.6      37.210
2014    9       30    12   6    4.22   439.9    4.6      37.192
2014    9       30    12  11    4.22   439.7    4.6      37.173
2014    9       30    12  17    4.22   439.5    4.6      37.155
2014    9       30    12  22    4.22   439.3    4.6      37.137
2014    9       30    12  28    4.22   439.1    4.6      37.119
2014    9       30    12  33    4.22   439.0    4.6      37.101
2014    9       30    12  39    4.22   438.8    4.6      37.083
2014    9       30    12  44    4.22   438.6    4.7      37.065
2014    9       30    12  50    4.22   438.4    4.7      37.047
2014    9       30    12  55    4.22   438.2    4.7      37.029
2014    9       30    13   1    4.22   438.0    4.7      37.011
2014    9       30    13   6    4.22   437.9    4.7      36.993
2014    9       30    13  12    4.22   437.7    4.7      36.976
2014    9       30    13  17    4.22   437.5    4.7      36.958
2014    9       30    13  23    4.22   437.3    4.7      36.940
2014    9       30    13  28    4.22   437.1    4.7      36.923
2014    9       30    13  34    4.22   437.0    4.7      36.905
2014    9       30    13  39    4.22   436.8    4.7      36.888
2014    9       30    13  45    4.22   436.6    4.7      36.870
2014    9       30    13  50    4.22   436.4    4.7      36.853
2014    9       30    13  56    4.22   436.2    4.7      36.835
2014    9       30    14   1    4.22   436.0    4.7      36.818
2014    9       30    14   7    4.22   435.9    4.7      36.800
2014    9       30    14  12    4.22   435.7    4.7      36.783
2014    9       30    14  18    4.22   435.5    4.7      36.765
2014    9       30    14  23    4.22   435.3    4.7      36.748
2014    9       30    14  29    4.22   435.1    4.7      36.730
2014    9       30    14  34    4.22   434.9    4.7      36.712
2014    9       30    14  40    4.22   434.8    4.7      36.695
2014    9       30    14  45    4.22   434.6    4.7      36.677
2014    9       30    14  51    4.22   434.4    4.8      36.660
2014    9       30    14  56    4.22   434.2    4.8      36.642
2014    9       30    15   2    4.22   434.0    4.8      36.624
2014    9       30    15   7    4.22   433.9    4.8      36.607
2014    9       30    15  13    4.22   433.7    4.8      36.589
2014    9       30    15  18    4.22   433.5    4.8      36.571
2014    9       30    15  23    4.22   433.3    4.8      36.554
2014    9       30    15  29    4.22   433.1    4.8      36.536
2014    9       30    15  34    4.22   432.9    4.8      36.518
2014    9       30    15  40    4.22   432.8    4.8      36.501
2014    9       30    15  45    4.22   432.6    4.8      36.483
2014    9       30    15  51    4.23   432.4    4.8      36.465
2014    9       30    15  56    4.23   432.2    4.8      36.447
2014    9       30    16   2    4.23   432.0    4.8      36.430
2014    9       30    16   7    4.23   431.8    4.8      36.412
2014    9       30    16  13    4.23   431.7    4.8      36.394
2014    9       30    16  18    4.23   431.5    4.8      36.377
2014    9       30    16  24    4.23   431.3    4.8      36.359
2014    9       30    16  29    4.23   431.1    4.8      36.342
2014    9       30    16  35    4.23   430.9    4.8      36.324
2014    9       30    16  40    4.23   430.8    4.8      36.306
2014    9       30    16  46    4.23   430.6    4.9      36.289
2014    9       30    16  51    4.23   430.4    4.9      36.271
2014    9       30    16  57    4.23   430.2    4.9      36.254
2014    9       30    17   2    4.23   430.0    4.9      36.237
2014    9       30    17   8    4.23   429.9    4.9      36.219
2014    9       30    17  13    4.23   429.7    4.9      36.202
2014    9       30    17  19    4.23   429.5    4.9      36.185
2014    9       30    17  24    4.23   429.3    4.9      36.168
2014    9       30    17  30    4.23   429.1    4.9      36.151
2014    9       30    17  35    4.23   429.0    4.9      36.134
2014    9       30    17  41    4.23   428.8    4.9      36.117
2014    9       30    17  46    4.23   428.6    4.9      36.100
2014    9       30    17  52    4.23   428.4    4.9      36.083
2014    9       30    17  57    4.23   428.2    4.9      36.066
2014    9       30    18   3    4.23   428.1    4.9      36.050
2014    9       30    18   8    4.23   427.9    4.9      36.033
2014    9       30    18  14    4.23   427.7    4.9      36.016
2014    9       30    18  19    4.23   427.5    4.9      36.000
2014    9       30    18  25    4.23   427.4    4.9      35.983
2014    9       30    18  30    4.23   427.2    4.9      35.967
2014    9       30    18  36    4.23   427.0    5.0      35.951
2014    9       30    18  41    4.23   426.8    5.0      35.934
2014    9       30    18  47    4.23   426.7    5.0      35.918
2014    9       30    18  52    4.23   426.5    5.0      35.902
2014    9       30    18  58    4.24   426.3    5.0      35.886
2014    9       30    19   3    4.24   426.1    5.0      35.870
2014    9       30    19   8    4.24   425.9    5.0      35.854
2014    9       30    19  14    4.24   425.8    5.0      35.838
2014    9       30    19  19    4.24   425.6    5.0      35.822
2014    9       30    19  25    4.24   425.4    5.0      35.806
2014    9       30    19  30    4.24   425.2    5.0      35.791
2014    9       30    19  36    4.24   425.1    5.0      35.775
2014    9       30    19  41    4.24   424.9    5.0      35.759
2014    9       30    19  47    4.24   424.7    5.0      35.744
2014    9       30    19  52    4.24   424.5    5.0      35.728
2014    9       30    19  58    4.24   424.4    5.0      35.712
2014    9       30    20   3    4.24   424.2    5.0      35.697
2014    9       30    20   9    4.24   424.0    5.1      35.681
2014    9       30    20  14    4.24   423.9    5.1      35.666
2014    9       30    20  20    4.24   423.7    5.1      35.651
2014    9       30    20  25    4.24   423.5    5.1      35.635
2014    9       30    20  31    4.24   423.3    5.1      35.620
2014    9       30    20  36    4.24   423.2    5.1      35.604
2014    9       30    20  42    4.24   423.0    5.1      35.589
2014    9       30    20  47    4.25   422.8    5.1      35.574
2014    9       30    20  53    4.25   422.6    5.1      35.558
2014    9       30    20  58    4.25   422.5    5.1      35.543
2014    9       30    21   4    4.25   422.3    5.1      35.528
2014    9       30    21   9    4.25   422.1    5.1      35.513
2014    9       30    21  15    4.25   421.9    5.1      35.498
2014    9       30    21  20    4.25   421.8    5.1      35.482
2014    9       30    21  26    4.25   421.6    5.1      35.467
2014    9       30    21  31    4.25   421.4    5.1      35.452
2014    9       30    21  37    4.25   421.2    5.1      35.437
2014    9       30    21  42    4.25   421.1    5.2      35.422
2014    9       30    21  48    4.25   420.9    5.2      35.407
2014    9       30    21  53    4.25   420.7    5.2      35.392
2014    9       30    21  59    4.25   420.6    5.2      35.377
2014    9       30    22   4    4.25   420.4    5.2      35.362
2014    9       30    22  10    4.25   420.2    5.2      35.347
2014    9       30    22  15    4.26   420.0    5.2      35.333
2014    9       30    22  21    4.26   419.9    5.2      35.318
2014    9       30    22  26    4.26   419.7    5.2      35.303
2014    9       30    22  32    4.26   419.5    5.2      35.288
2014    9       30    22  37    4.26   419.3    5.2      35.273
2014    9       30    22  43    4.26   419.2    5.2      35.259
2014    9       30    22  48    4.26   419.0    5.2      35.244
2014    9       30    22  54    4.26   418.8    5.2      35.230
2014    9       30    22  59    4.26   418.7    5.2      35.215
2014    9       30    23   5    4.26   418.5    5.2      35.200
2014    9       30    23  10    4.26   418.3    5.2      35.186
2014    9       30    23  16    4.27   418.2    5.3      35.172
2014    9       30    23  21    4.27   418.0    5.3      35.157
2014    9       30    23  27    4.27   417.8    5.3      35.143
2014    9       30    23  32    4.27   417.6    5.3      35.129
2014    9       30    23  38    4.27   417.5    5.3      35.114
2014    9       30    23  43    4.27   417.3    5.3      35.100
2014    9       30    23  49    4.27   417.1    5.3      35.086
2014    9       30    23  54    4.27   417.0    5.3      35.072
2014   10        1     0   0    4.27   416.8    5.3      35.057
2014   10        1     0   5    4.27   416.6    5.3      35.043
2014   10        1     0  11    4.28   416.5    5.3      35.029
2014   10        1     0  16    4.28   416.3    5.3      35.015
2014   10        1     0  22    4.28   416.1    5.3      35.001
2014   10        1     0  27    4.28   416.0    5.3      34.987
2014   10        1     0  33    4.28   415.8    5.3      34.973
2014   10        1     0  38    4.28   415.7    5.4      34.959
2014   10        1     0  43    4.28   415.5    5.4      34.945
2014   10        1     0  49    4.28   415.3    5.4      34.931
2014   10        1     0  54    4.29   415.2    5.4      34.917
2014   10        1     1   0    4.29   415.0    5.4      34.903
2014   10        1     1   5    4.29   414.8    5.4      34.889
2014   10        1     1  11    4.29   414.7    5.4      34.875
2014   10        1     1  16    4.29   414.5    5.4      34.861
2014   10        1     1  22    4.29   414.4    5.4      34.847
2014   10        1     1  27    4.29   414.2    5.4      34.833
2014   10        1     1  33    4.30   414.0    5.4      34.819
2014   10        1     1  38    4.30   413.9    5.4      34.805
2014   10        1     1  44    4.30   413.7    5.4      34.791
2014   10        1     1  49    4.30   413.6    5.4      34.777
2014   10        1     1  55    4.30   413.4    5.4      34.763
2014   10        1     2   0    4.30   413.2    5.5      34.749
2014   10        1     2   6    4.30   413.1    5.5      34.735
2014   10        1     2  11    4.31   412.9    5.5      34.721
2014   10        1     2  17    4.31   412.8    5.5      34.707
2014   10        1     2  22    4.31   412.6    5.5      34.693
2014   10        1     2  28    4.31   412.4    5.5      34.679
2014   10        1     2  33    4.31   412.3    5.5      34.665
2014   10        1     2  39    4.31   412.1    5.5      34.651
2014   10        1     2  44    4.32   412.0    5.5      34.637
2014   10        1     2  50    4.32   411.8    5.5      34.623
2014   10        1     2  55    4.32   411.7    5.5      34.609
2014   10        1     3   1    4.32   411.5    5.5      34.595
2014   10        1     3   6    4.32   411.4    5.5      34.581
2014   10        1     3  12    4.32   411.2    5.5      34.567
2014   10        1     3  17    4.33   411.1    5.5      34.553
2014   10        1     3  23    4.33   410.9    5.6      34.538
2014   10        1     3  28    4.33   410.7    5.6      34.524
2014   10        1     3  34    4.33   410.6    5.6      34.511
2014   10        1     3  39    4.33   410.4    5.6      34.496
2014   10        1     3  45    4.33   410.3    5.6      34.483
2014   10        1     3  50    4.34   410.1    5.6      34.469
2014   10        1     3  56    4.34   410.0    5.6      34.455
2014   10        1     4   1    4.34   409.8    5.6      34.441
2014   10        1     4   7    4.34   409.7    5.6      34.427
2014   10        1     4  12    4.34   409.5    5.6      34.413
2014   10        1     4  18    4.35   409.4    5.6      34.400
2014   10        1     4  23    4.35   409.2    5.6      34.386
2014   10        1     4  28    4.35   409.1    5.6      34.373
2014   10        1     4  34    4.35   408.9    5.7      34.359
2014   10        1     4  39    4.35   408.8    5.7      34.346
2014   10        1     4  45    4.36   408.6    5.7      34.332
2014   10        1     4  50    4.36   408.5    5.7      34.319
2014   10        1     4  56    4.36   408.4    5.7      34.306
2014   10        1     5   1    4.36   408.2    5.7      34.293
2014   10        1     5   7    4.36   408.1    5.7      34.279
2014   10        1     5  12    4.37   407.9    5.7      34.267
2014   10        1     5  18    4.37   407.8    5.7      34.254
2014   10        1     5  23    4.37   407.6    5.7      34.241
2014   10        1     5  29    4.37   407.5    5.7      34.228
2014   10        1     5  34    4.37   407.4    5.7      34.215
2014   10        1     5  40    4.38   407.2    5.7      34.203
2014   10        1     5  45    4.38   407.1    5.8      34.190
2014   10        1     5  51    4.38   406.9    5.8      34.178
2014   10        1     5  56    4.38   406.8    5.8      34.166
2014   10        1     6   2    4.39   406.7    5.8      34.153
2014   10        1     6   7    4.39   406.5    5.8      34.141
2014   10        1     6  13    4.39   406.4    5.8      34.129
2014   10        1     6  18    4.39   406.2    5.8      34.117
2014   10        1     6  24    4.39   406.1    5.8      34.105
2014   10        1     6  29    4.40   406.0    5.8      34.093
2014   10        1     6  35    4.40   405.8    5.8      34.081
2014   10        1     6  40    4.40   405.7    5.8      34.070
2014   10        1     6  46    4.40   405.6    5.8      34.058
2014   10        1     6  51    4.41   405.4    5.8      34.047
2014   10        1     6  57    4.41   405.3    5.9      34.036
2014   10        1     7   2    4.41   405.2    5.9      34.025
2014   10        1     7   8    4.41   405.0    5.9      34.013
2014   10        1     7  13    4.41   404.9    5.9      34.002
2014   10        1     7  19    4.42   404.8    5.9      33.991
2014   10        1     7  24    4.42   404.6    5.9      33.981
2014   10        1     7  30    4.42   404.5    5.9      33.970
2014   10        1     7  35    4.42   404.4    5.9      33.959
2014   10        1     7  41    4.43   404.2    5.9      33.948
2014   10        1     7  46    4.43   404.1    5.9      33.938
2014   10        1     7  52    4.43   404.0    5.9      33.928
2014   10        1     7  57    4.43   403.9    5.9      33.917
2014   10        1     8   3    4.44   403.7    5.9      33.907
2014   10        1     8   8    4.44   403.6    5.9      33.897
2014   10        1     8  14    4.44   403.5    6.0      33.887
2014   10        1     8  19    4.44   403.4    6.0      33.877
2014   10        1     8  25    4.45   403.2    6.0      33.867
2014   10        1     8  30    4.45   403.1    6.0      33.857
2014   10        1     8  36    4.45   403.0    6.0      33.847
2014   10        1     8  41    4.45   402.9    6.0      33.837
2014   10        1     8  47    4.45   402.7    6.0      33.828
2014   10        1     8  52    4.46   402.6    6.0      33.818
2014   10        1     8  58    4.46   402.5    6.0      33.809
2014   10        1     9   3    4.46   402.4    6.0      33.800
2014   10        1     9   8    4.46   402.3    6.0      33.790
2014   10        1     9  14    4.47   402.1    6.0      33.781
2014   10        1     9  19    4.47   402.0    6.0      33.772
2014   10        1     9  25    4.47   401.9    6.1      33.763
2014   10        1     9  30    4.47   401.8    6.1      33.753
2014   10        1     9  36    4.48   401.7    6.1      33.744
2014   10        1     9  41    4.48   401.6    6.1      33.735
2014   10        1     9  47    4.48   401.4    6.1      33.727
2014   10        1     9  52    4.49   401.3    6.1      33.718
2014   10        1     9  58    4.49   401.2    6.1      33.709
2014   10        1    10   3    4.49   401.1    6.1      33.700
2014   10        1    10   9    4.49   401.0    6.1      33.691
2014   10        1    10  14    4.50   400.9    6.1      33.683
2014   10        1    10  20    4.50   400.8    6.1      33.674
2014   10        1    10  25    4.50   400.6    6.1      33.665
2014   10        1    10  31    4.50   400.5    6.2      33.657
2014   10        1    10  36    4.51   400.4    6.2      33.648
2014   10        1    10  42    4.51   400.3    6.2      33.640
2014   10        1    10  47    4.51   400.2    6.2      33.632
2014   10        1    10  53    4.51   400.1    6.2      33.623
2014   10        1    10  58    4.52   400.0    6.2      33.615
2014   10        1    11   4    4.52   399.9    6.2      33.607
2014   10        1    11   9    4.52   399.8    6.2      33.599
2014   10        1    11  15    4.53   399.6    6.2      33.591
2014   10        1    11  20    4.53   399.5    6.2      33.583
2014   10        1    11  26    4.53   399.4    6.2      33.575
2014   10        1    11  31    4.53   399.3    6.2      33.567
2014   10        1    11  37    4.54   399.2    6.3      33.560
2014   10        1    11  42    4.54   399.1    6.3      33.552
2014   10        1    11  48    4.54   399.0    6.3      33.545
2014   10        1    11  53    4.55   398.9    6.3      33.537
2014   10        1    11  59    4.55   398.8    6.3      33.530
2014   10        1    12   4    4.55   398.7    6.3      33.523
2014   10        1    12  10    4.55   398.6    6.3      33.516
2014   10        1    12  15    4.56   398.5    6.3      33.509
2014   10        1    12  21    4.56   398.4    6.3      33.502
2014   10        1    12  26    4.56   398.3    6.3      33.495
2014   10        1    12  32    4.57   398.2    6.3      33.489
2014   10        1    12  37    4.57   398.1    6.3      33.482
2014   10        1    12  43    4.57   398.0    6.4      33.476
2014   10        1    12  48    4.57   397.9    6.4      33.470
2014   10        1    12  54    4.58   397.8    6.4      33.464
2014   10        1    12  59    4.58   397.7    6.4      33.458
2014   10        1    13   5    4.58   397.6    6.4      33.452
2014   10        1    13  10    4.59   397.5    6.4      33.446
2014   10        1    13  16    4.59   397.4    6.4      33.441
2014   10        1    13  21    4.59   397.3    6.4      33.435
2014   10        1    13  27    4.60   397.2    6.4      33.430
2014   10        1    13  32    4.60   397.1    6.4      33.424
2014   10        1    13  38    4.60   397.0    6.4      33.419
2014   10        1    13  43    4.60   396.9    6.5      33.414
2014   10        1    13  49    4.61   396.8    6.5      33.409
2014   10        1    13  54    4.61   396.7    6.5      33.405
2014   10        1    14   0    4.61   396.6    6.5      33.400
2014   10        1    14   5    4.62   396.5    6.5      33.396
2014   10        1    14  11    4.62   396.4    6.5      33.391
2014   10        1    14  16    4.62   396.4    6.5      33.387
2014   10        1    14  22    4.63   396.3    6.5      33.383
2014   10        1    14  27    4.63   396.2    6.5      33.379
2014   10        1    14  32    4.63   396.1    6.5      33.375
2014   10        1    14  38    4.64   396.0    6.6      33.372
2014   10        1    14  43    4.64   395.9    6.6      33.368
2014   10        1    14  49    4.64   395.8    6.6      33.365
2014   10        1    14  54    4.64   395.7    6.6      33.362
2014   10        1    15   0    4.65   395.6    6.6      33.359
2014   10        1    15   5    4.65   395.6    6.6      33.356
2014   10        1    15  11    4.65   395.5    6.6      33.353
2014   10        1    15  16    4.66   395.4    6.6      33.350
2014   10        1    15  22    4.66   395.3    6.6      33.348
2014   10        1    15  27    4.66   395.2    6.6      33.346
2014   10        1    15  33    4.67   395.1    6.6      33.344
2014   10        1    15  38    4.67   395.0    6.6      33.342
2014   10        1    15  44    4.67   395.0    6.7      33.341
2014   10        1    15  49    4.68   394.9    6.7      33.340
2014   10        1    15  55    4.68   394.8    6.7      33.338
2014   10        1    16   0    4.68   394.7    6.7      33.337
2014   10        1    16   6    4.69   394.6    6.7      33.337
2014   10        1    16  11    4.69   394.6    6.7      33.336
2014   10        1    16  17    4.69   394.5    6.7      33.336
2014   10        1    16  22    4.70   394.4    6.7      33.335
2014   10        1    16  28    4.70   394.3    6.7      33.335
2014   10        1    16  33    4.70   394.2    6.7      33.335
2014   10        1    16  39    4.71   394.2    6.7      33.335
2014   10        1    16  44    4.71   394.1    6.7      33.335
2014   10        1    16  50    4.71   394.0    6.8      33.335
2014   10        1    16  55    4.72   393.9    6.8      33.335
2014   10        1    17   1    4.72   393.9    6.8      33.335
2014   10        1    17   6    4.72   393.8    6.8      33.335
2014   10        1    17  12    4.73   393.7    6.8      33.335
2014   10        1    17  17    4.73   393.6    6.8      33.335
2014   10        1    17  23    4.73   393.6    6.8      33.335
2014   10        1    17  28    4.74   393.5    6.8      33.334
2014   10        1    17  34    4.74   393.4    6.8      33.334
2014   10        1    17  39    4.74   393.3    6.8      33.334
2014   10        1    17  45    4.75   393.3    6.8      33.334
2014   10        1    17  50    4.75   393.2    6.8      33.333
2014   10        1    17  55    4.75   393.1    6.9      33.333
2014   10        1    18   1    4.76   393.1    6.9      33.332
2014   10        1    18   6    4.76   393.0    6.9      33.331
2014   10        1    18  12    4.76   392.9    6.9      33.331
2014   10        1    18  17    4.77   392.9    6.9      33.330
2014   10        1    18  23    4.77   392.8    6.9      33.329
2014   10        1    18  28    4.77   392.7    6.9      33.328
2014   10        1    18  34    4.78   392.7    6.9      33.327
2014   10        1    18  39    4.78   392.6    6.9      33.326
2014   10        1    18  45    4.78   392.5    6.9      33.325
2014   10        1    18  50    4.79   392.5    6.9      33.324
2014   10        1    18  56    4.79   392.4    6.9      33.323
2014   10        1    19   1    4.79   392.3    6.9      33.322
2014   10        1    19   7    4.80   392.3    6.9      33.321
2014   10        1    19  12    4.80   392.2    7.0      33.319
2014   10        1    19  18    4.81   392.1    7.0      33.318
2014   10        1    19  23    4.81   392.1    7.0      33.317
2014   10        1    19  29    4.81   392.0    7.0      33.316
2014   10        1    19  34    4.82   391.9    7.0      33.314
2014   10        1    19  40    4.82   391.9    7.0      33.313
2014   10        1    19  45    4.82   391.8    7.0      33.312
2014   10        1    19  51    4.83   391.8    7.0      33.310
2014   10        1    19  56    4.83   391.7    7.0      33.309
2014   10        1    20   2    4.83   391.6    7.0      33.308
2014   10        1    20   7    4.84   391.6    7.0      33.307
2014   10        1    20  13    4.84   391.5    7.0      33.306
2014   10        1    20  18    4.84   391.5    7.0      33.304
2014   10        1    20  24    4.85   391.4    7.1      33.304
2014   10        1    20  29    4.85   391.3    7.1      33.303
2014   10        1    20  35    4.85   391.3    7.1      33.302
2014   10        1    20  40    4.86   391.2    7.1      33.301
2014   10        1    20  46    4.86   391.2    7.1      33.301
2014   10        1    20  51    4.87   391.1    7.1      33.300
2014   10        1    20  57    4.87   391.1    7.1      33.300
2014   10        1    21   2    4.87   391.0    7.1      33.300
2014   10        1    21   8    4.88   390.9    7.1      33.299
2014   10        1    21  13    4.88   390.9    7.1      33.299
2014   10        1    21  19    4.88   390.8    7.1      33.300
2014   10        1    21  24    4.89   390.8    7.1      33.300
2014   10        1    21  30    4.89   390.7    7.1      33.300
2014   10        1    21  35    4.90   390.7    7.2      33.301
2014   10        1    21  41    4.90   390.6    7.2      33.301
2014   10        1    21  46    4.90   390.6    7.2      33.302
2014   10        1    21  52    4.91   390.5    7.2      33.303
2014   10        1    21  57    4.91   390.5    7.2      33.304
2014   10        1    22   3    4.91   390.4    7.2      33.306
2014   10        1    22   8    4.92   390.4    7.2      33.307
2014   10        1    22  14    4.92   390.3    7.2      33.309
2014   10        1    22  19    4.93   390.3    7.2      33.310
2014   10        1    22  25    4.93   390.2    7.2      33.312
2014   10        1    22  30    4.93   390.2    7.2      33.314
2014   10        1    22  36    4.94   390.1    7.2      33.316
2014   10        1    22  41    4.94   390.1    7.2      33.319
2014   10        1    22  47    4.95   390.0    7.3      33.321
2014   10        1    22  52    4.95   390.0    7.3      33.324
2014   10        1    22  58    4.95   389.9    7.3      33.327
2014   10        1    23   3    4.96   389.9    7.3      33.330
2014   10        1    23   9    4.96   389.8    7.3      33.333
2014   10        1    23  14    4.96   389.8    7.3      33.336
2014   10        1    23  19    4.97   389.7    7.3      33.339
2014   10        1    23  25    4.97   389.7    7.3      33.343
2014   10        1    23  30    4.98   389.6    7.3      33.346
2014   10        1    23  36    4.98   389.6    7.3      33.350
2014   10        1    23  41    4.98   389.5    7.3      33.354
2014   10        1    23  47    4.99   389.5    7.3      33.358
2014   10        1    23  52    4.99   389.4    7.3      33.363
2014   10        1    23  58    5.00   389.4    7.4      33.367
2014   10        2     0   3    5.00   389.4    7.4      33.372
2014   10        2     0   9    5.00   389.3    7.4      33.377
2014   10        2     0  14    5.01   389.3    7.4      33.382
2014   10        2     0  20    5.01   389.2    7.4      33.387
2014   10        2     0  25    5.02   389.2    7.4      33.392
2014   10        2     0  31    5.02   389.1    7.4      33.397
2014   10        2     0  36    5.02   389.1    7.4      33.403
2014   10        2     0  42    5.03   389.1    7.4      33.409
2014   10        2     0  47    5.03   389.0    7.4      33.415
2014   10        2     0  53    5.04   389.0    7.4      33.421
2014   10        2     0  58    5.04   388.9    7.4      33.428
2014   10        2     1   4    5.04   388.9    7.4      33.435
2014   10        2     1   9    5.05   388.9    7.5      33.442
2014   10        2     1  15    5.05   388.8    7.5      33.449
2014   10        2     1  20    5.06   388.8    7.5      33.456
2014   10        2     1  26    5.06   388.8    7.5      33.464
2014   10        2     1  31    5.06   388.7    7.5      33.471
2014   10        2     1  37    5.07   388.7    7.5      33.479
2014   10        2     1  42    5.07   388.7    7.5      33.487
2014   10        2     1  48    5.08   388.6    7.5      33.495
2014   10        2     1  53    5.08   388.6    7.5      33.502
2014   10        2     1  59    5.08   388.5    7.5      33.511
2014   10        2     2   4    5.09   388.5    7.5      33.519
2014   10        2     2  10    5.09   388.5    7.5      33.526
2014   10        2     2  15    5.10   388.4    7.5      33.535
2014   10        2     2  21    5.10   388.4    7.5      33.542
2014   10        2     2  26    5.10   388.4    7.5      33.550
2014   10        2     2  32    5.11   388.3    7.6      33.558
2014   10        2     2  37    5.11   388.3    7.6      33.566
2014   10        2     2  43    5.12   388.3    7.6      33.574
2014   10        2     2  48    5.12   388.2    7.6      33.582
2014   10        2     2  54    5.12   388.2    7.6      33.590
2014   10        2     2  59    5.13   388.2    7.6      33.598
2014   10        2     3   5    5.13   388.1    7.6      33.605
2014   10        2     3  10    5.14   388.1    7.6      33.613
2014   10        2     3  16    5.14   388.1    7.6      33.621
2014   10        2     3  21    5.14   388.1    7.6      33.628
2014   10        2     3  27    5.15   388.0    7.6      33.636
2014   10        2     3  32    5.15   388.0    7.6      33.643
2014   10        2     3  38    5.16   388.0    7.6      33.650
2014   10        2     3  43    5.16   387.9    7.6      33.658
2014   10        2     3  49    5.16   387.9    7.6      33.665
2014   10        2     3  54    5.17   387.9    7.6      33.672
2014   10        2     4   0    5.17   387.9    7.6      33.679
2014   10        2     4   5    5.18   387.8    7.7      33.686
2014   10        2     4  11    5.18   387.8    7.7      33.694
2014   10        2     4  16    5.19   387.8    7.7      33.701
2014   10        2     4  22    5.19   387.7    7.7      33.708
2014   10        2     4  27    5.19   387.7    7.7      33.715
2014   10        2     4  33    5.20   387.7    7.7      33.723
2014   10        2     4  38    5.20   387.7    7.7      33.730
2014   10        2     4  43    5.21   387.6    7.7      33.737
2014   10        2     4  49    5.21   387.6    7.7      33.745
2014   10        2     4  54    5.22   387.6    7.7      33.752
2014   10        2     5   0    5.22   387.6    7.7      33.760
2014   10        2     5   5    5.22   387.5    7.7      33.768
2014   10        2     5  11    5.23   387.5    7.7      33.776
2014   10        2     5  16    5.23   387.5    7.7      33.784
2014   10        2     5  22    5.24   387.5    7.7      33.792
2014   10        2     5  27    5.24   387.4    7.7      33.800
2014   10        2     5  33    5.24   387.4    7.7      33.809
2014   10        2     5  38    5.25   387.4    7.7      33.818
2014   10        2     5  44    5.25   387.4    7.8      33.826
2014   10        2     5  49    5.26   387.4    7.8      33.835
2014   10        2     5  55    5.26   387.3    7.8      33.844
2014   10        2     6   0    5.27   387.3    7.8      33.854
2014   10        2     6   6    5.27   387.3    7.8      33.863
2014   10        2     6  11    5.28   387.3    7.8      33.873
2014   10        2     6  17    5.28   387.3    7.8      33.883
2014   10        2     6  22    5.28   387.3    7.8      33.892
2014   10        2     6  28    5.29   387.2    7.8      33.903
2014   10        2     6  33    5.29   387.2    7.8      33.913
2014   10        2     6  39    5.30   387.2    7.8      33.923
2014   10        2     6  44    5.30   387.2    7.8      33.934
2014   10        2     6  50    5.31   387.2    7.8      33.945
2014   10        2     6  55    5.31   387.2    7.8      33.956
2014   10        2     7   1    5.31   387.2    7.8      33.967
2014   10        2     7   6    5.32   387.1    7.8      33.979
2014   10        2     7  12    5.32   387.1    7.9      33.990
2014   10        2     7  17    5.33   387.1    7.9      34.002
2014   10        2     7  23    5.33   387.1    7.9      34.014
2014   10        2     7  28    5.34   387.1    7.9      34.026
2014   10        2     7  34    5.34   387.1    7.9      34.039
2014   10        2     7  39    5.35   387.1    7.9      34.051
2014   10        2     7  45    5.35   387.1    7.9      34.064
2014   10        2     7  50    5.35   387.1    7.9      34.077
2014   10        2     7  56    5.36   387.0    7.9      34.090
2014   10        2     8   1    5.36   387.0    7.9      34.104
2014   10        2     8   6    5.37   387.0    7.9      34.117
2014   10        2     8  12    5.37   387.0    7.9      34.131
2014   10        2     8  17    5.38   387.0    7.9      34.145
2014   10        2     8  23    5.38   387.0    7.9      34.160
2014   10        2     8  28    5.39   387.0    7.9      34.174
2014   10        2     8  34    5.39   387.0    8.0      34.189
2014   10        2     8  39    5.39   387.0    8.0      34.204
2014   10        2     8  45    5.40   387.0    8.0      34.220
2014   10        2     8  50    5.40   387.0    8.0      34.235
2014   10        2     8  56    5.41   387.0    8.0      34.251
2014   10        2     9   1    5.41   387.0    8.0      34.268
2014   10        2     9   7    5.42   387.0    8.0      34.284
2014   10        2     9  12    5.42   387.0    8.0      34.301
2014   10        2     9  18    5.43   387.0    8.0      34.318
2014   10        2     9  23    5.43   387.0    8.0      34.336
2014   10        2     9  29    5.43   387.0    8.0      34.353
2014   10        2     9  34    5.44   387.0    8.0      34.372
2014   10        2     9  40    5.44   387.0    8.0      34.390
2014   10        2     9  45    5.45   387.0    8.0      34.409
2014   10        2     9  51    5.45   387.0    8.0      34.429
2014   10        2     9  56    5.46   387.0    8.0      34.449
2014   10        2    10   2    5.46   387.0    8.1      34.469
2014   10        2    10   7    5.47   387.0    8.1      34.490
2014   10        2    10  13    5.47   387.0    8.1      34.511
2014   10        2    10  18    5.47   387.0    8.1      34.532
2014   10        2    10  24    5.48   387.0    8.1      34.554
2014   10        2    10  29    5.48   387.0    8.1      34.576
2014   10        2    10  35    5.49   387.0    8.1      34.597
2014   10        2    10  40    5.49   387.0    8.1      34.619
2014   10        2    10  46    5.50   387.0    8.1      34.641
2014   10        2    10  51    5.50   387.0    8.1      34.663
2014   10        2    10  57    5.50   387.0    8.1      34.684
2014   10        2    11   2    5.51   387.0    8.1      34.706
2014   10        2    11   8    5.51   387.0    8.1      34.727
2014   10        2    11  13    5.52   387.0    8.1      34.748
2014   10        2    11  19    5.52   387.0    8.1      34.769
2014   10        2    11  24    5.53   387.0    8.1      34.790
2014   10        2    11  30    5.53   387.1    8.1      34.811
2014   10        2    11  35    5.54   387.1    8.1      34.831
2014   10        2    11  41    5.54   387.1    8.1      34.852
2014   10        2    11  46    5.54   387.1    8.2      34.872
2014   10        2    11  52    5.55   387.1    8.2      34.892
2014   10        2    11  57    5.55   387.1    8.2      34.913
2014   10        2    12   3    5.56   387.1    8.2      34.933
2014   10        2    12   8    5.56   387.1    8.2      34.953
2014   10        2    12  14    5.57   387.1    8.2      34.973
2014   10        2    12  19    5.57   387.1    8.2      34.992
2014   10        2    12  25    5.57   387.1    8.2      35.012
2014   10        2    12  30    5.58   387.2    8.2      35.032
2014   10        2    12  36    5.58   387.2    8.2      35.051
2014   10        2    12  41    5.59   387.2    8.2      35.071
2014   10        2    12  47    5.59   387.2    8.2      35.091
2014   10        2    12  52    5.60   387.2    8.2      35.110
2014   10        2    12  58    5.60   387.2    8.2      35.130
2014   10        2    13   3    5.60   387.2    8.2      35.149
2014   10        2    13   9    5.61   387.2    8.2      35.169
2014   10        2    13  14    5.61   387.3    8.2      35.188
2014   10        2    13  20    5.62   387.3    8.2      35.208
2014   10        2    13  25    5.62   387.3    8.2      35.228
2014   10        2    13  31    5.63   387.3    8.2      35.247
2014   10        2    13  36    5.63   387.3    8.2      35.267
2014   10        2    13  41    5.63   387.3    8.2      35.287
2014   10        2    13  47    5.64   387.4    8.2      35.306
2014   10        2    13  52    5.64   387.4    8.2      35.326
2014   10        2    13  58    5.65   387.4    8.2      35.346
2014   10        2    14   3    5.65   387.4    8.2      35.366
2014   10        2    14   9    5.66   387.4    8.3      35.386
2014   10        2    14  14    5.66   387.5    8.3      35.406
2014   10        2    14  20    5.66   387.5    8.3      35.427
2014   10        2    14  25    5.67   387.5    8.3      35.447
2014   10        2    14  31    5.67   387.5    8.3      35.468
2014   10        2    14  36    5.68   387.5    8.3      35.488
2014   10        2    14  42    5.68   387.6    8.3      35.509
2014   10        2    14  47    5.69   387.6    8.3      35.530
2014   10        2    14  53    5.69   387.6    8.3      35.552
2014   10        2    14  58    5.69   387.6    8.3      35.573
2014   10        2    15   4    5.70   387.7    8.3      35.595
2014   10        2    15   9    5.70   387.7    8.3      35.617
2014   10        2    15  15    5.71   387.7    8.3      35.639
2014   10        2    15  20    5.71   387.7    8.3      35.661
2014   10        2    15  26    5.72   387.8    8.3      35.684
2014   10        2    15  31    5.72   387.8    8.3      35.706
2014   10        2    15  37    5.73   387.8    8.3      35.729
2014   10        2    15  42    5.73   387.8    8.3      35.753
2014   10        2    15  48    5.73   387.9    8.3      35.776
2014   10        2    15  53    5.74   387.9    8.3      35.800
2014   10        2    15  59    5.74   387.9    8.3      35.823
2014   10        2    16   4    5.75   388.0    8.3      35.847
2014   10        2    16  10    5.75   388.0    8.3      35.872
2014   10        2    16  15    5.76   388.0    8.3      35.896
2014   10        2    16  21    5.76   388.1    8.4      35.921
2014   10        2    16  26    5.77   388.1    8.4      35.947
2014   10        2    16  32    5.77   388.1    8.4      35.972
2014   10        2    16  37    5.78   388.2    8.4      35.998
2014   10        2    16  43    5.78   388.2    8.4      36.025
2014   10        2    16  48    5.78   388.3    8.4      36.052
2014   10        2    16  54    5.79   388.3    8.4      36.079
2014   10        2    16  59    5.79   388.3    8.4      36.108
2014   10        2    17   5    5.80   388.4    8.4      36.137
2014   10        2    17  10    5.80   388.4    8.4      36.168
2014   10        2    17  16    5.81   388.5    8.4      36.199
2014   10        2    17  21    5.81   388.5    8.4      36.232
2014   10        2    17  27    5.81   388.6    8.4      36.265
2014   10        2    17  32    5.82   388.6    8.4      36.300
2014   10        2    17  38    5.82   388.7    8.4      36.335
2014   10        2    17  43    5.83   388.7    8.4      36.371
2014   10        2    17  49    5.83   388.7    8.4      36.407
2014   10        2    17  54    5.83   388.8    8.4      36.444
2014   10        2    18   0    5.84   388.8    8.4      36.480
2014   10        2    18   5    5.84   388.9    8.4      36.518
2014   10        2    18  11    5.85   388.9    8.4      36.554
2014   10        2    18  16    5.85   389.0    8.5      36.591
2014   10        2    18  22    5.85   389.0    8.5      36.628
2014   10        2    18  27    5.86   389.1    8.5      36.665
2014   10        2    18  33    5.86   389.1    8.5      36.701
2014   10        2    18  38    5.86   389.1    8.5      36.737
2014   10        2    18  44    5.87   389.2    8.5      36.772
2014   10        2    18  49    5.87   389.2    8.5      36.807
2014   10        2    18  55    5.88   389.3    8.5      36.843
2014   10        2    19   0    5.88   389.3    8.5      36.877
2014   10        2    19   5    5.88   389.4    8.5      36.911
2014   10        2    19  11    5.89   389.4    8.5      36.946
2014   10        2    19  16    5.89   389.5    8.5      36.979
2014   10        2    19  22    5.89   389.5    8.5      37.013
2014   10        2    19  27    5.90   389.5    8.5      37.046
2014   10        2    19  33    5.90   389.6    8.5      37.079
2014   10        2    19  38    5.90   389.6    8.5      37.111
2014   10        2    19  44    5.91   389.7    8.5      37.144
2014   10        2    19  49    5.91   389.7    8.5      37.176
2014   10        2    19  55    5.92   389.8    8.5      37.208
2014   10        2    20   0    5.92   389.8    8.5      37.239
2014   10        2    20   6    5.92   389.9    8.5      37.270
2014   10        2    20  11    5.93   389.9    8.5      37.301
2014   10        2    20  17    5.93   390.0    8.5      37.332
2014   10        2    20  22    5.93   390.0    8.5      37.362
2014   10        2    20  28    5.94   390.0    8.5      37.393
2014   10        2    20  33    5.94   390.1    8.5      37.423
2014   10        2    20  39    5.94   390.1    8.5      37.453
2014   10        2    20  44    5.95   390.2    8.5      37.482
2014   10        2    20  50    5.95   390.2    8.5      37.512
2014   10        2    20  55    5.95   390.3    8.5      37.541
2014   10        2    21   1    5.96   390.3    8.5      37.570
2014   10        2    21   6    5.96   390.4    8.5      37.599
2014   10        2    21  12    5.97   390.4    8.5      37.628
2014   10        2    21  17    5.97   390.5    8.5      37.656
2014   10        2    21  23    5.97   390.5    8.5      37.685
2014   10        2    21  28    5.98   390.6    8.5      37.713
2014   10        2    21  34    5.98   390.6    8.5      37.742
2014   10        2    21  39    5.98   390.7    8.5      37.770
2014   10        2    21  45    5.99   390.7    8.5      37.798
2014   10        2    21  50    5.99   390.8    8.5      37.826
2014   10        2    21  56    5.99   390.8    8.5      37.854
2014   10        2    22   1    6.00   390.9    8.5      37.883
2014   10        2    22   7    6.00   390.9    8.5      37.911
2014   10        2    22  12    6.01   391.0    8.5      37.939
2014   10        2    22  18    6.01   391.0    8.5      37.968
2014   10        2    22  23    6.01   391.1    8.5      37.996
2014   10        2    22  29    6.02   391.1    8.5      38.025
2014   10        2    22  34    6.02   391.2    8.5      38.054
2014   10        2    22  40    6.02   391.2    8.5      38.083
2014   10        2    22  45    6.03   391.3    8.5      38.112
2014   10        2    22  50    6.03   391.3    8.5      38.142
2014   10        2    22  56    6.04   391.4    8.5      38.172
2014   10        2    23   1    6.04   391.4    8.5      38.202
2014   10        2    23   7    6.04   391.5    8.5      38.232
2014   10        2    23  12    6.05   391.5    8.5      38.263
2014   10        2    23  18    6.05   391.6    8.5      38.294
2014   10        2    23  23    6.05   391.7    8.5      38.325
2014   10        2    23  29    6.06   391.7    8.5      38.357
2014   10        2    23  34    6.06   391.8    8.5      38.389
2014   10        2    23  40    6.07   391.8    8.5      38.422
2014   10        2    23  45    6.07   391.9    8.5      38.455
2014   10        2    23  51    6.07   392.0    8.5      38.490
2014   10        2    23  56    6.08   392.0    8.6      38.525
2014   10        3     0   2    6.08   392.1    8.6      38.561
2014   10        3     0   7    6.09   392.2    8.6      38.597
2014   10        3     0  13    6.09   392.2    8.6      38.635
2014   10        3     0  18    6.09   392.3    8.6      38.673
2014   10        3     0  24    6.10   392.4    8.6      38.714
2014   10        3     0  29    6.10   392.4    8.6      38.755
2014   10        3     0  35    6.10   392.5    8.6      38.798
2014   10        3     0  40    6.11   392.6    8.6      38.842
2014   10        3     0  46    6.11   392.7    8.6      38.888
2014   10        3     0  51    6.11   392.8    8.6      38.934
2014   10        3     0  57    6.12   392.8    8.6      38.982
2014   10        3     1   2    6.12   392.9    8.6      39.030
2014   10        3     1   8    6.12   393.0    8.6      39.078
2014   10        3     1  13    6.13   393.1    8.6      39.126
2014   10        3     1  19    6.13   393.2    8.6      39.172
2014   10        3     1  24    6.13   393.2    8.6      39.219
2014   10        3     1  30    6.14   393.3    8.6      39.265
2014   10        3     1  35    6.14   393.4    8.6      39.310
2014   10        3     1  41    6.14   393.5    8.6      39.355
2014   10        3     1  46    6.14   393.6    8.6      39.400
2014   10        3     1  52    6.15   393.6    8.6      39.444
2014   10        3     1  57    6.15   393.7    8.6      39.487
2014   10        3     2   3    6.15   393.8    8.6      39.530
2014   10        3     2   8    6.16   393.9    8.6      39.572
2014   10        3     2  14    6.16   394.0    8.6      39.614
2014   10        3     2  19    6.16   394.0    8.6      39.655
2014   10        3     2  25    6.16   394.1    8.6      39.696
2014   10        3     2  30    6.17   394.2    8.6      39.736
2014   10        3     2  36    6.17   394.3    8.6      39.776
2014   10        3     2  41    6.17   394.4    8.6      39.815
2014   10        3     2  47    6.17   394.4    8.6      39.854
2014   10        3     2  52    6.18   394.5    8.6      39.892
2014   10        3     2  58    6.18   394.6    8.6      39.930
2014   10        3     3   3    6.18   394.7    8.6      39.968
2014   10        3     3   9    6.18   394.8    8.6      40.005
2014   10        3     3  14    6.19   394.9    8.6      40.041
2014   10        3     3  20    6.19   394.9    8.6      40.078
2014   10        3     3  25    6.19   395.0    8.6      40.114
2014   10        3     3  31    6.19   395.1    8.6      40.149
2014   10        3     3  36    6.20   395.2    8.6      40.184
2014   10        3     3  42    6.20   395.3    8.6      40.219
2014   10        3     3  47    6.20   395.4    8.6      40.253
2014   10        3     3  53    6.20   395.4    8.6      40.287
2014   10        3     3  58    6.21   395.5    8.6      40.321
2014   10        3     4   4    6.21   395.6    8.6      40.354
2014   10        3     4   9    6.21   395.7    8.6      40.388
2014   10        3     4  14    6.21   395.8    8.6      40.420
2014   10        3     4  20    6.22   395.8    8.6      40.453
2014   10        3     4  25    6.22   395.9    8.6      40.485
2014   10        3     4  31    6.22   396.0    8.6      40.517
2014   10        3     4  36    6.22   396.1    8.6      40.549
2014   10        3     4  42    6.22   396.2    8.6      40.581
2014   10        3     4  47    6.23   396.3    8.6      40.612
2014   10        3     4  53    6.23   396.3    8.6      40.644
2014   10        3     4  58    6.23   396.4    8.6      40.675
2014   10        3     5   4    6.23   396.5    8.6      40.706
2014   10        3     5   9    6.24   396.6    8.6      40.736
2014   10        3     5  15    6.24   396.7    8.6      40.767
2014   10        3     5  20    6.24   396.7    8.6      40.797
2014   10        3     5  26    6.24   396.8    8.6      40.828
2014   10        3     5  31    6.25   396.9    8.6      40.858
2014   10        3     5  37    6.25   397.0    8.6      40.889
2014   10        3     5  42    6.25   397.1    8.6      40.919
2014   10        3     5  48    6.25   397.2    8.6      40.950
2014   10        3     5  53    6.26   397.2    8.6      40.980
2014   10        3     5  59    6.26   397.3    8.6      41.011
2014   10        3     6   4    6.26   397.4    8.6      41.041
2014   10        3     6  10    6.26   397.5    8.5      41.072
2014   10        3     6  15    6.27   397.6    8.5      41.103
2014   10        3     6  21    6.27   397.7    8.5      41.135
2014   10        3     6  26    6.27   397.8    8.5      41.166
2014   10        3     6  32    6.27   397.8    8.5      41.198
2014   10        3     6  37    6.28   397.9    8.5      41.230
2014   10        3     6  43    6.28   398.0    8.5      41.263
2014   10        3     6  48    6.28   398.1    8.5      41.296
2014   10        3     6  54    6.29   398.2    8.5      41.330
2014   10        3     6  59    6.29   398.3    8.5      41.364
2014   10        3     7   5    6.29   398.4    8.5      41.400
2014   10        3     7  10    6.29   398.5    8.6      41.436
2014   10        3     7  16    6.30   398.5    8.6      41.472
2014   10        3     7  21    6.30   398.6    8.6      41.510
2014   10        3     7  27    6.30   398.7    8.6      41.548
2014   10        3     7  32    6.30   398.8    8.6      41.587
2014   10        3     7  38    6.30   398.9    8.6      41.627
2014   10        3     7  43    6.31   399.0    8.6      41.668
2014   10        3     7  49    6.31   399.1    8.6      41.710
2014   10        3     7  54    6.31   399.2    8.6      41.753
2014   10        3     8   0    6.31   399.3    8.6      41.796
2014   10        3     8   5    6.32   399.4    8.6      41.840
2014   10        3     8  11    6.32   399.6    8.6      41.884
2014   10        3     8  16    6.32   399.7    8.6      41.928
2014   10        3     8  22    6.32   399.8    8.6      41.972
2014   10        3     8  27    6.32   399.9    8.6      42.014
2014   10        3     8  33    6.32   400.0    8.6      42.057
2014   10        3     8  38    6.33   400.1    8.6      42.098
2014   10        3     8  44    6.33   400.2    8.6      42.139
2014   10        3     8  49    6.33   400.3    8.6      42.179
2014   10        3     8  55    6.33   400.4    8.6      42.218
2014   10        3     9   0    6.33   400.5    8.6      42.257
2014   10        3     9   6    6.33   400.6    8.6      42.295
2014   10        3     9  11    6.34   400.7    8.6      42.333
2014   10        3     9  17    6.34   400.8    8.5      42.370
2014   10        3     9  22    6.34   401.0    8.5      42.406
2014   10        3     9  28    6.34   401.1    8.5      42.442
2014   10        3     9  33    6.34   401.2    8.5      42.477
2014   10        3     9  39    6.34   401.3    8.5      42.512
2014   10        3     9  44    6.34   401.4    8.5      42.547
2014   10        3     9  49    6.34   401.5    8.5      42.581
2014   10        3     9  55    6.35   401.6    8.5      42.614
2014   10        3    10   0    6.35   401.7    8.5      42.647
2014   10        3    10   6    6.35   401.8    8.5      42.679
2014   10        3    10  11    6.35   401.9    8.5      42.712
2014   10        3    10  17    6.35   402.1    8.5      42.743
2014   10        3    10  22    6.35   402.2    8.5      42.775
2014   10        3    10  28    6.35   402.3    8.5      42.806
2014   10        3    10  33    6.35   402.4    8.5      42.836
2014   10        3    10  39    6.36   402.5    8.5      42.866
2014   10        3    10  44    6.36   402.6    8.5      42.896
2014   10        3    10  50    6.36   402.7    8.5      42.925
2014   10        3    10  55    6.36   402.8    8.5      42.954
2014   10        3    11   1    6.36   402.9    8.5      42.983
2014   10        3    11   6    6.36   403.0    8.5      43.011
2014   10        3    11  12    6.36   403.1    8.5      43.039
2014   10        3    11  17    6.36   403.3    8.5      43.067
2014   10        3    11  23    6.37   403.4    8.5      43.095
2014   10        3    11  28    6.37   403.5    8.5      43.122
2014   10        3    11  34    6.37   403.6    8.5      43.149
2014   10        3    11  39    6.37   403.7    8.5      43.176
2014   10        3    11  45    6.37   403.8    8.5      43.202
2014   10        3    11  50    6.37   403.9    8.5      43.228
2014   10        3    11  56    6.37   404.0    8.5      43.254
2014   10        3    12   1    6.37   404.1    8.5      43.280
2014   10        3    12   7    6.37   404.3    8.5      43.306
2014   10        3    12  12    6.38   404.4    8.5      43.331
2014   10        3    12  18    6.38   404.5    8.5      43.356
2014   10        3    12  23    6.38   404.6    8.4      43.382
2014   10        3    12  29    6.38   404.7    8.4      43.407
2014   10        3    12  34    6.38   404.8    8.4      43.431
2014   10        3    12  40    6.38   404.9    8.4      43.456
2014   10        3    12  45    6.38   405.0    8.4      43.481
2014   10        3    12  51    6.38   405.1    8.4      43.505
2014   10        3    12  56    6.38   405.3    8.4      43.529
2014   10        3    13   2    6.38   405.4    8.4      43.553
2014   10        3    13   7    6.39   405.5    8.4      43.577
2014   10        3    13  13    6.39   405.6    8.4      43.601
2014   10        3    13  18    6.39   405.7    8.4      43.624
2014   10        3    13  23    6.39   405.8    8.4      43.647
2014   10        3    13  29    6.39   405.9    8.4      43.670
2014   10        3    13  34    6.39   406.0    8.4      43.693
2014   10        3    13  40    6.39   406.2    8.4      43.716
2014   10        3    13  45    6.39   406.3    8.4      43.739
2014   10        3    13  51    6.39   406.4    8.4      43.762
2014   10        3    13  56    6.39   406.5    8.4      43.785
2014   10        3    14   2    6.39   406.6    8.4      43.808
2014   10        3    14   7    6.39   406.7    8.4      43.831
2014   10        3    14  13    6.39   406.8    8.4      43.853
2014   10        3    14  18    6.39   406.9    8.4      43.876
2014   10        3    14  24    6.40   407.1    8.4      43.899
2014   10        3    14  29    6.40   407.2    8.4      43.922
2014   10        3    14  35    6.40   407.3    8.4      43.945
2014   10        3    14  40    6.40   407.4    8.4      43.968
2014   10        3    14  46    6.40   407.5    8.4      43.992
2014   10        3    14  51    6.40   407.6    8.4      44.015
2014   10        3    14  57    6.40   407.8    8.4      44.039
2014   10        3    15   2    6.40   407.9    8.4      44.063
2014   10        3    15   8    6.40   408.0    8.3      44.087
2014   10        3    15  13    6.40   408.1    8.3      44.110
2014   10        3    15  19    6.40   408.2    8.3      44.133
2014   10        3    15  24    6.40   408.3    8.3      44.155
2014   10        3    15  30    6.40   408.4    8.3      44.177
2014   10        3    15  35    6.40   408.5    8.3      44.199
2014   10        3    15  41    6.40   408.7    8.3      44.221
2014   10        3    15  46    6.40   408.8    8.3      44.242
2014   10        3    15  52    6.40   408.9    8.3      44.263
2014   10        3    15  57    6.40   409.0    8.3      44.283
2014   10        3    16   3    6.40   409.1    8.3      44.303
2014   10        3    16   8    6.40   409.2    8.3      44.323
2014   10        3    16  14    6.40   409.3    8.3      44.342
2014   10        3    16  19    6.40   409.4    8.3      44.361
2014   10        3    16  25    6.39   409.5    8.3      44.380
2014   10        3    16  30    6.39   409.7    8.3      44.399
2014   10        3    16  36    6.39   409.8    8.3      44.417
2014   10        3    16  41    6.39   409.9    8.3      44.435
2014   10        3    16  47    6.39   410.0    8.3      44.452
2014   10        3    16  52    6.39   410.1    8.3      44.470
2014   10        3    16  58    6.39   410.2    8.3      44.487
2014   10        3    17   3    6.39   410.3    8.2      44.503
2014   10        3    17   9    6.39   410.4    8.2      44.520
2014   10        3    17  14    6.39   410.5    8.2      44.536
2014   10        3    17  20    6.39   410.6    8.2      44.551
2014   10        3    17  25    6.39   410.7    8.2      44.567
2014   10        3    17  31    6.39   410.8    8.2      44.582
2014   10        3    17  36    6.39   410.9    8.2      44.597
2014   10        3    17  42    6.39   411.0    8.2      44.611
2014   10        3    17  47    6.39   411.1    8.2      44.626
2014   10        3    17  53    6.39   411.3    8.2      44.640
2014   10        3    17  58    6.39   411.4    8.2      44.653
2014   10        3    18   4    6.39   411.5    8.2      44.667
2014   10        3    18   9    6.39   411.6    8.2      44.680
2014   10        3    18  15    6.38   411.7    8.2      44.693
2014   10        3    18  20    6.38   411.8    8.2      44.705
2014   10        3    18  26    6.38   411.9    8.2      44.717
2014   10        3    18  31    6.38   412.0    8.2      44.729
2014   10        3    18  37    6.38   412.1    8.2      44.741
2014   10        3    18  42    6.38   412.2    8.2      44.752
2014   10        3    18  48    6.38   412.3    8.1      44.763
2014   10        3    18  53    6.38   412.4    8.1      44.774
2014   10        3    18  59    6.38   412.5    8.1      44.784
2014   10        3    19   4    6.38   412.6    8.1      44.795
2014   10        3    19   9    6.38   412.7    8.1      44.805
2014   10        3    19  15    6.38   412.8    8.1      44.815
2014   10        3    19  20    6.38   412.9    8.1      44.824
2014   10        3    19  26    6.37   413.0    8.1      44.833
2014   10        3    19  31    6.37   413.1    8.1      44.842
2014   10        3    19  37    6.37   413.2    8.1      44.851
2014   10        3    19  42    6.37   413.3    8.1      44.859
2014   10        3    19  48    6.37   413.4    8.1      44.867
2014   10        3    19  53    6.37   413.4    8.1      44.875
2014   10        3    19  59    6.37   413.5    8.1      44.883
2014   10        3    20   4    6.37   413.6    8.1      44.890
2014   10        3    20  10    6.37   413.7    8.1      44.897
2014   10        3    20  15    6.36   413.8    8.1      44.904
2014   10        3    20  21    6.36   413.9    8.1      44.911
2014   10        3    20  26    6.36   414.0    8.1      44.918
2014   10        3    20  32    6.36   414.1    8.0      44.924
2014   10        3    20  37    6.36   414.2    8.0      44.930
2014   10        3    20  43    6.36   414.3    8.0      44.936
2014   10        3    20  48    6.36   414.3    8.0      44.942
2014   10        3    20  54    6.36   414.4    8.0      44.948
2014   10        3    20  59    6.35   414.5    8.0      44.954
2014   10        3    21   5    6.35   414.6    8.0      44.959
2014   10        3    21  10    6.35   414.7    8.0      44.965
2014   10        3    21  16    6.35   414.8    8.0      44.970
2014   10        3    21  21    6.35   414.8    8.0      44.976
2014   10        3    21  27    6.35   414.9    8.0      44.981
2014   10        3    21  32    6.35   415.0    8.0      44.986
2014   10        3    21  38    6.35   415.1    8.0      44.990
2014   10        3    21  43    6.34   415.2    8.0      44.995
2014   10        3    21  49    6.34   415.2    8.0      45.000
2014   10        3    21  54    6.34   415.3    8.0      45.004
2014   10        3    22   0    6.34   415.4    8.0      45.009
2014   10        3    22   5    6.34   415.5    8.0      45.013
2014   10        3    22  11    6.34   415.6    8.0      45.017
2014   10        3    22  16    6.33   415.6    7.9      45.021
2014   10        3    22  22    6.33   415.7    7.9      45.025
2014   10        3    22  27    6.33   415.8    7.9      45.028
2014   10        3    22  33    6.33   415.9    7.9      45.032
2014   10        3    22  38    6.33   415.9    7.9      45.035
2014   10        3    22  44    6.33   416.0    7.9      45.038
2014   10        3    22  49    6.32   416.1    7.9      45.041
2014   10        3    22  55    6.32   416.1    7.9      45.044
2014   10        3    23   0    6.32   416.2    7.9      45.046
2014   10        3    23   6    6.32   416.3    7.9      45.049
2014   10        3    23  11    6.32   416.3    7.9      45.051
2014   10        3    23  17    6.32   416.4    7.9      45.053
2014   10        3    23  22    6.31   416.5    7.9      45.055
2014   10        3    23  28    6.31   416.5    7.9      45.057
2014   10        3    23  33    6.31   416.6    7.9      45.058
2014   10        3    23  39    6.31   416.7    7.9      45.060
2014   10        3    23  44    6.31   416.7    7.9      45.061
2014   10        3    23  50    6.31   416.8    7.9      45.062
2014   10        3    23  55    6.30   416.9    7.9      45.063
2014   10        4     0   1    6.30   416.9    7.9      45.064
2014   10        4     0   6    6.30   417.0    7.9      45.065
2014   10        4     0  12    6.30   417.0    7.8      45.066
2014   10        4     0  17    6.30   417.1    7.8      45.067
2014   10        4     0  23    6.30   417.1    7.8      45.067
2014   10        4     0  28    6.29   417.2    7.8      45.068
2014   10        4     0  34    6.29   417.3    7.8      45.069
2014   10        4     0  39    6.29   417.3    7.8      45.069
2014   10        4     0  44    6.29   417.4    7.8      45.070
2014   10        4     0  50    6.29   417.4    7.8      45.071
2014   10        4     0  55    6.29   417.5    7.8      45.072
2014   10        4     1   1    6.28   417.5    7.8      45.072
2014   10        4     1   6    6.28   417.6    7.8      45.073
2014   10        4     1  12    6.28   417.6    7.8      45.074
2014   10        4     1  17    6.28   417.7    7.8      45.076
2014   10        4     1  23    6.28   417.7    7.8      45.077
2014   10        4     1  28    6.28   417.8    7.8      45.078
2014   10        4     1  34    6.27   417.8    7.8      45.080
2014   10        4     1  39    6.27   417.9    7.8      45.081
2014   10        4     1  45    6.27   417.9    7.8      45.083
2014   10        4     1  50    6.27   418.0    7.8      45.084
2014   10        4     1  56    6.27   418.0    7.8      45.086
2014   10        4     2   1    6.27   418.1    7.8      45.088
2014   10        4     2   7    6.26   418.1    7.8      45.090
2014   10        4     2  12    6.26   418.2    7.8      45.093
2014   10        4     2  18    6.26   418.2    7.8      45.094
2014   10        4     2  23    6.26   418.3    7.8      45.097
2014   10        4     2  29    6.26   418.3    7.7      45.099
2014   10        4     2  34    6.26   418.4    7.7      45.101
2014   10        4     2  40    6.25   418.4    7.7      45.103
2014   10        4     2  45    6.25   418.5    7.7      45.105
2014   10        4     2  51    6.25   418.5    7.7      45.106
2014   10        4     2  56    6.25   418.6    7.7      45.106
2014   10        4     3   2    6.25   418.6    7.7      45.107
2014   10        4     3   7    6.25   418.7    7.7      45.107
2014   10        4     3  13    6.24   418.7    7.7      45.107
2014   10        4     3  18    6.24   418.7    7.7      45.107
2014   10        4     3  24    6.24   418.8    7.7      45.106
2014   10        4     3  29    6.24   418.8    7.7      45.105
2014   10        4     3  35    6.24   418.9    7.7      45.104
2014   10        4     3  40    6.23   418.9    7.7      45.103
2014   10        4     3  46    6.23   418.9    7.7      45.102
2014   10        4     3  51    6.23   419.0    7.7      45.100
2014   10        4     3  57    6.23   419.0    7.7      45.099
2014   10        4     4   2    6.23   419.1    7.7      45.097
2014   10        4     4   8    6.23   419.1    7.7      45.095
2014   10        4     4  13    6.22   419.1    7.7      45.093
2014   10        4     4  19    6.22   419.2    7.7      45.091
2014   10        4     4  24    6.22   419.2    7.7      45.088
2014   10        4     4  29    6.22   419.2    7.7      45.086
2014   10        4     4  35    6.22   419.3    7.7      45.084
2014   10        4     4  40    6.21   419.3    7.7      45.081
2014   10        4     4  46    6.21   419.3    7.7      45.078
2014   10        4     4  51    6.21   419.3    7.6      45.076
2014   10        4     4  57    6.21   419.4    7.6      45.073
2014   10        4     5   2    6.21   419.4    7.6      45.070
2014   10        4     5   8    6.21   419.4    7.6      45.067
2014   10        4     5  13    6.20   419.5    7.6      45.065
2014   10        4     5  19    6.20   419.5    7.6      45.062
2014   10        4     5  24    6.20   419.5    7.6      45.059
2014   10        4     5  30    6.20   419.5    7.6      45.056
2014   10        4     5  35    6.20   419.6    7.6      45.053
2014   10        4     5  41    6.19   419.6    7.6      45.050
2014   10        4     5  46    6.19   419.6    7.6      45.047
2014   10        4     5  52    6.19   419.6    7.6      45.044
2014   10        4     5  57    6.19   419.7    7.6      45.041
2014   10        4     6   3    6.19   419.7    7.6      45.038
2014   10        4     6   8    6.19   419.7    7.6      45.035
2014   10        4     6  14    6.18   419.7    7.6      45.032
2014   10        4     6  19    6.18   419.8    7.6      45.029
2014   10        4     6  25    6.18   419.8    7.6      45.025
2014   10        4     6  30    6.18   419.8    7.6      45.022
2014   10        4     6  36    6.18   419.8    7.6      45.019
2014   10        4     6  41    6.18   419.8    7.6      45.016
2014   10        4     6  47    6.18   419.9    7.6      45.013
2014   10        4     6  52    6.17   419.9    7.6      45.010
2014   10        4     6  58    6.17   419.9    7.6      45.007
2014   10        4     7   3    6.17   419.9    7.6      45.004
2014   10        4     7   9    6.17   419.9    7.6      45.002
2014   10        4     7  14    6.17   419.9    7.6      44.999
2014   10        4     7  20    6.17   419.9    7.6      44.996
2014   10        4     7  25    6.16   420.0    7.6      44.994
2014   10        4     7  31    6.16   420.0    7.6      44.992
2014   10        4     7  36    6.16   420.0    7.6      44.989
2014   10        4     7  42    6.16   420.0    7.6      44.987
2014   10        4     7  47    6.16   420.0    7.6      44.986
2014   10        4     7  53    6.16   420.0    7.6      44.984
2014   10        4     7  58    6.16   420.0    7.6      44.983
2014   10        4     8   4    6.16   420.0    7.6      44.981
2014   10        4     8   9    6.15   420.1    7.6      44.981
2014   10        4     8  15    6.15   420.1    7.6      44.980
2014   10        4     8  20    6.15   420.1    7.6      44.980
2014   10        4     8  26    6.15   420.1    7.6      44.980
2014   10        4     8  31    6.15   420.1    7.6      44.979
2014   10        4     8  37    6.15   420.1    7.6      44.980
2014   10        4     8  42    6.15   420.1    7.6      44.980
2014   10        4     8  48    6.15   420.1    7.6      44.981
2014   10        4     8  53    6.14   420.2    7.6      44.982
2014   10        4     8  59    6.14   420.2    7.6      44.983
2014   10        4     9   4    6.14   420.2    7.6      44.984
2014   10        4     9  10    6.14   420.2    7.6      44.986
2014   10        4     9  15    6.14   420.2    7.6      44.988
2014   10        4     9  21    6.14   420.2    7.6      44.990
2014   10        4     9  26    6.14   420.2    7.6      44.992
2014   10        4     9  32    6.14   420.3    7.6      44.993
2014   10        4     9  37    6.14   420.3    7.6      44.995
2014   10        4     9  43    6.13   420.3    7.6      44.996
2014   10        4     9  48    6.13   420.3    7.6      44.997
2014   10        4     9  53    6.13   420.3    7.5      44.998
2014   10        4     9  59    6.13   420.3    7.5      44.999
2014   10        4    10   4    6.13   420.3    7.5      44.999
2014   10        4    10  10    6.13   420.4    7.5      45.000
2014   10        4    10  15    6.13   420.4    7.5      45.000
2014   10        4    10  21    6.13   420.4    7.5      45.000
2014   10        4    10  26    6.13   420.4    7.5      45.000
2014   10        4    10  32    6.12   420.4    7.5      45.000
2014   10        4    10  37    6.12   420.4    7.5      45.000
2014   10        4    10  43    6.12   420.4    7.5      44.999
2014   10        4    10  48    6.12   420.5    7.5      44.999
2014   10        4    10  54    6.12   420.5    7.5      44.998
2014   10        4    10  59    6.12   420.5    7.5      44.997
2014   10        4    11   5    6.12   420.5    7.5      44.996
2014   10        4    11  10    6.12   420.5    7.5      44.995
2014   10        4    11  16    6.12   420.5    7.5      44.994
2014   10        4    11  21    6.11   420.5    7.5      44.993
2014   10        4    11  27    6.11   420.5    7.5      44.992
2014   10        4    11  32    6.11   420.6    7.5      44.990
2014   10        4    11  38    6.11   420.6    7.5      44.989
2014   10        4    11  43    6.11   420.6    7.5      44.987
2014   10        4    11  49    6.11   420.6    7.5      44.985
2014   10        4    11  54    6.11   420.6    7.5      44.983
2014   10        4    12   0    6.11   420.6    7.5      44.981
2014   10        4    12   5    6.11   420.6    7.5      44.979
2014   10        4    12  11    6.10   420.6    7.5      44.977
2014   10        4    12  16    6.10   420.7    7.5      44.974
2014   10        4    12  22    6.10   420.7    7.5      44.972
2014   10        4    12  27    6.10   420.7    7.5      44.969
2014   10        4    12  33    6.10   420.7    7.5      44.966
2014   10        4    12  38    6.10   420.7    7.5      44.964
2014   10        4    12  44    6.10   420.7    7.5      44.961
2014   10        4    12  49    6.10   420.7    7.5      44.958
2014   10        4    12  55    6.10   420.7    7.5      44.955
2014   10        4    13   0    6.09   420.7    7.5      44.952
2014   10        4    13   6    6.09   420.7    7.5      44.949
2014   10        4    13  11    6.09   420.7    7.5      44.946
2014   10        4    13  17    6.09   420.8    7.5      44.942
2014   10        4    13  22    6.09   420.8    7.5      44.939
2014   10        4    13  28    6.09   420.8    7.5      44.936
2014   10        4    13  33    6.09   420.8    7.5      44.933
2014   10        4    13  39    6.09   420.8    7.5      44.930
2014   10        4    13  44    6.09   420.8    7.5      44.926
2014   10        4    13  50    6.08   420.8    7.5      44.923
2014   10        4    13  55    6.08   420.8    7.5      44.920
2014   10        4    14   1    6.08   420.8    7.5      44.917
2014   10        4    14   6    6.08   420.8    7.5      44.914
2014   10        4    14  12    6.08   420.8    7.5      44.911
2014   10        4    14  17    6.08   420.8    7.5      44.907
2014   10        4    14  23    6.08   420.8    7.5      44.904
2014   10        4    14  28    6.08   420.8    7.5      44.901
2014   10        4    14  34    6.08   420.8    7.5      44.898
2014   10        4    14  39    6.08   420.9    7.5      44.895
2014   10        4    14  45    6.07   420.9    7.5      44.892
2014   10        4    14  50    6.07   420.9    7.5      44.889
2014   10        4    14  56    6.07   420.9    7.5      44.887
2014   10        4    15   1    6.07   420.9    7.5      44.884
2014   10        4    15   7    6.07   420.9    7.5      44.881
2014   10        4    15  12    6.07   420.9    7.5      44.878
2014   10        4    15  18    6.07   420.9    7.5      44.876
2014   10        4    15  23    6.07   420.9    7.5      44.873
2014   10        4    15  29    6.07   420.9    7.5      44.870
2014   10        4    15  34    6.07   420.9    7.5      44.868
2014   10        4    15  40    6.07   420.9    7.5      44.865
2014   10        4    15  45    6.06   420.9    7.5      44.863
2014   10        4    15  50    6.06   420.9    7.5      44.861
2014   10        4    15  56    6.06   420.9    7.5      44.858
2014   10        4    16   1    6.06   420.9    7.5      44.856
2014   10        4    16   7    6.06   420.9    7.5      44.854
2014   10        4    16  12    6.06   420.9    7.5      44.852
2014   10        4    16  18    6.06   420.9    7.5      44.850
2014   10        4    16  23    6.06   420.9    7.5      44.849
2014   10        4    16  29    6.06   420.9    7.5      44.847
2014   10        4    16  34    6.06   420.9    7.5      44.845
2014   10        4    16  40    6.06   420.9    7.5      44.844
2014   10        4    16  45    6.06   421.0    7.5      44.842
2014   10        4    16  51    6.06   421.0    7.5      44.841
2014   10        4    16  56    6.06   421.0    7.5      44.840
2014   10        4    17   2    6.05   421.0    7.5      44.839
2014   10        4    17   7    6.05   421.0    7.4      44.838
2014   10        4    17  13    6.05   421.0    7.4      44.837
2014   10        4    17  18    6.05   421.0    7.4      44.836
2014   10        4    17  24    6.05   421.0    7.4      44.835
2014   10        4    17  29    6.05   421.0    7.4      44.835
2014   10        4    17  35    6.05   421.0    7.4      44.834
2014   10        4    17  40    6.05   421.0    7.4      44.834
2014   10        4    17  46    6.05   421.0    7.4      44.833
2014   10        4    17  51    6.05   421.0    7.4      44.833
2014   10        4    17  57    6.05   421.0    7.4      44.833
2014   10        4    18   2    6.05   421.0    7.4      44.833
2014   10        4    18   8    6.05   421.0    7.4      44.833
2014   10        4    18  13    6.05   421.0    7.4      44.833
2014   10        4    18  19    6.05   421.1    7.4      44.833
2014   10        4    18  24    6.04   421.1    7.4      44.833
2014   10        4    18  30    6.04   421.1    7.4      44.833
2014   10        4    18  35    6.04   421.1    7.4      44.833
2014   10        4    18  41    6.04   421.1    7.4      44.834
2014   10        4    18  46    6.04   421.1    7.4      44.834
2014   10        4    18  52    6.04   421.1    7.4      44.834
2014   10        4    18  57    6.04   421.1    7.4      44.834
2014   10        4    19   3    6.04   421.1    7.4      44.834
2014   10        4    19   8    6.04   421.1    7.4      44.834
2014   10        4    19  14    6.04   421.1    7.4      44.835
2014   10        4    19  19    6.04   421.1    7.4      44.835
2014   10        4    19  25    6.04   421.1    7.4      44.835
2014   10        4    19  30    6.04   421.1    7.4      44.835
2014   10        4    19  35    6.04   421.1    7.4      44.835
2014   10        4    19  41    6.03   421.2    7.4      44.835
2014   10        4    19  46    6.03   421.2    7.4      44.835
2014   10        4    19  52    6.03   421.2    7.4      44.835
2014   10        4    19  57    6.03   421.2    7.4      44.835
2014   10        4    20   3    6.03   421.2    7.4      44.835
2014   10        4    20   8    6.03   421.2    7.4      44.835
2014   10        4    20  14    6.03   421.2    7.4      44.834
2014   10        4    20  19    6.03   421.2    7.4      44.834
2014   10        4    20  25    6.03   421.2    7.4      44.834
2014   10        4    20  30    6.03   421.2    7.4      44.833
2014   10        4    20  36    6.03   421.2    7.4      44.833
2014   10        4    20  41    6.02   421.2    7.4      44.832
2014   10        4    20  47    6.02   421.2    7.4      44.831
2014   10        4    20  52    6.02   421.2    7.4      44.830
2014   10        4    20  58    6.02   421.2    7.4      44.829
2014   10        4    21   3    6.02   421.2    7.4      44.828
2014   10        4    21   9    6.02   421.2    7.4      44.827
2014   10        4    21  14    6.02   421.2    7.4      44.826
2014   10        4    21  20    6.02   421.2    7.4      44.825
2014   10        4    21  25    6.02   421.2    7.4      44.823
2014   10        4    21  31    6.02   421.2    7.4      44.822
2014   10        4    21  36    6.02   421.2    7.4      44.820
2014   10        4    21  42    6.01   421.2    7.4      44.818
2014   10        4    21  47    6.01   421.2    7.4      44.817
2014   10        4    21  53    6.01   421.3    7.4      44.815
2014   10        4    21  58    6.01   421.3    7.4      44.813
2014   10        4    22   4    6.01   421.3    7.4      44.810
2014   10        4    22   9    6.01   421.3    7.4      44.808
2014   10        4    22  15    6.01   421.3    7.4      44.806
2014   10        4    22  20    6.01   421.3    7.4      44.804
2014   10        4    22  26    6.01   421.3    7.4      44.801
2014   10        4    22  31    6.01   421.3    7.4      44.799
2014   10        4    22  37    6.01   421.3    7.4      44.796
2014   10        4    22  42    6.01   421.3    7.4      44.794
2014   10        4    22  48    6.00   421.3    7.4      44.791
2014   10        4    22  53    6.00   421.3    7.4      44.788
2014   10        4    22  59    6.00   421.3    7.4      44.785
2014   10        4    23   4    6.00   421.3    7.4      44.783
2014   10        4    23  10    6.00   421.3    7.4      44.780
2014   10        4    23  15    6.00   421.3    7.4      44.777
2014   10        4    23  21    6.00   421.3    7.4      44.774
2014   10        4    23  26    6.00   421.3    7.4      44.772
2014   10        4    23  32    6.00   421.3    7.4      44.769
2014   10        4    23  37    6.00   421.3    7.4      44.766
2014   10        4    23  43    6.00   421.3    7.4      44.764
2014   10        4    23  48    6.00   421.3    7.4      44.761
2014   10        4    23  54    6.00   421.3    7.4      44.759
2014   10        4    23  59    6.00   421.3    7.4      44.757
2014   10        5     0   5    5.99   421.3    7.4      44.754
