year    month   day   hour  minute  B_enl V_enl   n_enl       T_enl
[year] [month] [day] [hour][minute] [nT]  [km/s]  [cm-3]      [kK]
2014    9        2     0   3    4.48   536.6    3.8      51.001
2014    9        2     0   8    4.48   536.5    3.8      50.981
2014    9        2     0  14    4.48   536.3    3.8      50.962
2014    9        2     0  20    4.48   536.2    3.8      50.942
2014    9        2     0  25    4.48   536.1    3.8      50.923
2014    9        2     0  31    4.48   535.9    3.8      50.904
2014    9        2     0  36    4.48   535.8    3.8      50.885
2014    9        2     0  42    4.47   535.7    3.8      50.866
2014    9        2     0  48    4.47   535.5    3.8      50.848
2014    9        2     0  53    4.47   535.4    3.8      50.830
2014    9        2     0  59    4.47   535.3    3.8      50.811
2014    9        2     1   5    4.47   535.1    3.8      50.794
2014    9        2     1  10    4.47   535.0    3.8      50.776
2014    9        2     1  16    4.47   534.9    3.8      50.759
2014    9        2     1  21    4.46   534.7    3.8      50.742
2014    9        2     1  27    4.46   534.6    3.8      50.725
2014    9        2     1  33    4.46   534.5    3.8      50.708
2014    9        2     1  38    4.46   534.3    3.8      50.692
2014    9        2     1  44    4.46   534.2    3.8      50.675
2014    9        2     1  50    4.46   534.1    3.8      50.659
2014    9        2     1  55    4.46   533.9    3.8      50.644
2014    9        2     2   1    4.46   533.8    3.8      50.628
2014    9        2     2   6    4.45   533.7    3.8      50.613
2014    9        2     2  12    4.45   533.5    3.8      50.597
2014    9        2     2  18    4.45   533.4    3.8      50.582
2014    9        2     2  23    4.45   533.2    3.8      50.566
2014    9        2     2  29    4.45   533.1    3.8      50.550
2014    9        2     2  35    4.45   533.0    3.8      50.533
2014    9        2     2  40    4.45   532.8    3.8      50.516
2014    9        2     2  46    4.44   532.7    3.8      50.498
2014    9        2     2  51    4.44   532.6    3.8      50.479
2014    9        2     2  57    4.44   532.4    3.8      50.460
2014    9        2     3   3    4.44   532.3    3.8      50.441
2014    9        2     3   8    4.44   532.1    3.8      50.420
2014    9        2     3  14    4.44   532.0    3.8      50.400
2014    9        2     3  19    4.44   531.9    3.8      50.379
2014    9        2     3  25    4.43   531.7    3.8      50.358
2014    9        2     3  31    4.43   531.6    3.8      50.336
2014    9        2     3  36    4.43   531.5    3.8      50.315
2014    9        2     3  42    4.43   531.3    3.8      50.292
2014    9        2     3  48    4.43   531.2    3.8      50.270
2014    9        2     3  53    4.43   531.0    3.8      50.248
2014    9        2     3  59    4.43   530.9    3.8      50.225
2014    9        2     4   4    4.42   530.8    3.8      50.203
2014    9        2     4  10    4.42   530.6    3.8      50.180
2014    9        2     4  16    4.42   530.5    3.8      50.157
2014    9        2     4  21    4.42   530.4    3.8      50.133
2014    9        2     4  27    4.42   530.2    3.8      50.110
2014    9        2     4  33    4.42   530.1    3.8      50.087
2014    9        2     4  38    4.42   529.9    3.8      50.063
2014    9        2     4  44    4.41   529.8    3.8      50.039
2014    9        2     4  49    4.41   529.7    3.8      50.015
2014    9        2     4  55    4.41   529.5    3.8      49.991
2014    9        2     5   1    4.41   529.4    3.8      49.967
2014    9        2     5   6    4.41   529.3    3.8      49.942
2014    9        2     5  12    4.41   529.1    3.8      49.918
2014    9        2     5  17    4.41   529.0    3.8      49.894
2014    9        2     5  23    4.40   528.9    3.8      49.870
2014    9        2     5  29    4.40   528.7    3.8      49.845
2014    9        2     5  34    4.40   528.6    3.8      49.821
2014    9        2     5  40    4.40   528.5    3.8      49.796
2014    9        2     5  46    4.40   528.3    3.8      49.771
2014    9        2     5  51    4.40   528.2    3.8      49.745
2014    9        2     5  57    4.40   528.0    3.8      49.719
2014    9        2     6   2    4.39   527.9    3.8      49.693
2014    9        2     6   8    4.39   527.8    3.8      49.666
2014    9        2     6  14    4.39   527.6    3.8      49.639
2014    9        2     6  19    4.39   527.5    3.8      49.612
2014    9        2     6  25    4.39   527.4    3.8      49.584
2014    9        2     6  31    4.39   527.2    3.8      49.556
2014    9        2     6  36    4.38   527.1    3.8      49.527
2014    9        2     6  42    4.38   526.9    3.8      49.498
2014    9        2     6  47    4.38   526.8    3.8      49.469
2014    9        2     6  53    4.38   526.6    3.8      49.440
2014    9        2     6  59    4.38   526.5    3.8      49.410
2014    9        2     7   4    4.38   526.4    3.8      49.381
2014    9        2     7  10    4.37   526.2    3.8      49.351
2014    9        2     7  15    4.37   526.1    3.8      49.322
2014    9        2     7  21    4.37   525.9    3.8      49.292
2014    9        2     7  27    4.37   525.8    3.8      49.263
2014    9        2     7  32    4.37   525.6    3.8      49.233
2014    9        2     7  38    4.37   525.5    3.8      49.205
2014    9        2     7  44    4.36   525.3    3.8      49.176
2014    9        2     7  49    4.36   525.2    3.8      49.148
2014    9        2     7  55    4.36   525.0    3.8      49.120
2014    9        2     8   0    4.36   524.9    3.8      49.092
2014    9        2     8   6    4.36   524.7    3.8      49.065
2014    9        2     8  12    4.36   524.6    3.8      49.039
2014    9        2     8  17    4.35   524.4    3.8      49.013
2014    9        2     8  23    4.35   524.3    3.8      48.987
2014    9        2     8  29    4.35   524.1    3.8      48.962
2014    9        2     8  34    4.35   524.0    3.8      48.938
2014    9        2     8  40    4.35   523.8    3.8      48.913
2014    9        2     8  45    4.35   523.7    3.8      48.890
2014    9        2     8  51    4.35   523.5    3.8      48.867
2014    9        2     8  57    4.34   523.4    3.8      48.844
2014    9        2     9   2    4.34   523.2    3.8      48.822
2014    9        2     9   8    4.34   523.1    3.8      48.800
2014    9        2     9  14    4.34   522.9    3.8      48.779
2014    9        2     9  19    4.34   522.8    3.8      48.757
2014    9        2     9  25    4.34   522.6    3.8      48.735
2014    9        2     9  30    4.34   522.4    3.8      48.712
2014    9        2     9  36    4.33   522.3    3.8      48.689
2014    9        2     9  42    4.33   522.1    3.8      48.666
2014    9        2     9  47    4.33   522.0    3.8      48.642
2014    9        2     9  53    4.33   521.8    3.8      48.619
2014    9        2     9  58    4.33   521.7    3.8      48.595
2014    9        2    10   4    4.33   521.5    3.8      48.571
2014    9        2    10  10    4.33   521.3    3.8      48.547
2014    9        2    10  15    4.32   521.2    3.8      48.524
2014    9        2    10  21    4.32   521.0    3.8      48.500
2014    9        2    10  27    4.32   520.9    3.8      48.477
2014    9        2    10  32    4.32   520.7    3.8      48.454
2014    9        2    10  38    4.32   520.5    3.8      48.432
2014    9        2    10  43    4.32   520.4    3.8      48.410
2014    9        2    10  49    4.32   520.2    3.8      48.388
2014    9        2    10  55    4.31   520.1    3.8      48.367
2014    9        2    11   0    4.31   519.9    3.8      48.347
2014    9        2    11   6    4.31   519.8    3.8      48.327
2014    9        2    11  12    4.31   519.6    3.8      48.306
2014    9        2    11  17    4.31   519.4    3.8      48.287
2014    9        2    11  23    4.31   519.3    3.8      48.269
2014    9        2    11  28    4.31   519.1    3.8      48.251
2014    9        2    11  34    4.31   519.0    3.8      48.234
2014    9        2    11  40    4.30   518.8    3.8      48.217
2014    9        2    11  45    4.30   518.6    3.8      48.201
2014    9        2    11  51    4.30   518.5    3.8      48.184
2014    9        2    11  56    4.30   518.3    3.8      48.168
2014    9        2    12   2    4.30   518.2    3.8      48.150
2014    9        2    12   8    4.30   518.0    3.8      48.132
2014    9        2    12  13    4.30   517.9    3.8      48.113
2014    9        2    12  19    4.30   517.7    3.8      48.093
2014    9        2    12  25    4.29   517.6    3.8      48.073
2014    9        2    12  30    4.29   517.4    3.8      48.053
2014    9        2    12  36    4.29   517.3    3.8      48.031
2014    9        2    12  41    4.29   517.1    3.8      48.009
2014    9        2    12  47    4.29   516.9    3.8      47.987
2014    9        2    12  53    4.29   516.8    3.8      47.964
2014    9        2    12  58    4.29   516.6    3.8      47.940
2014    9        2    13   4    4.28   516.5    3.8      47.916
2014    9        2    13  10    4.28   516.3    3.8      47.891
2014    9        2    13  15    4.28   516.2    3.8      47.865
2014    9        2    13  21    4.28   516.1    3.8      47.839
2014    9        2    13  26    4.28   515.9    3.8      47.812
2014    9        2    13  32    4.28   515.8    3.8      47.785
2014    9        2    13  38    4.27   515.6    3.8      47.757
2014    9        2    13  43    4.27   515.5    3.8      47.728
2014    9        2    13  49    4.27   515.3    3.8      47.699
2014    9        2    13  54    4.27   515.2    3.8      47.669
2014    9        2    14   0    4.27   515.0    3.8      47.638
2014    9        2    14   6    4.27   514.9    3.8      47.608
2014    9        2    14  11    4.27   514.7    3.8      47.576
2014    9        2    14  17    4.26   514.6    3.8      47.544
2014    9        2    14  23    4.26   514.4    3.8      47.512
2014    9        2    14  28    4.26   514.3    3.8      47.480
2014    9        2    14  34    4.26   514.1    3.8      47.448
2014    9        2    14  39    4.26   514.0    3.8      47.415
2014    9        2    14  45    4.26   513.8    3.8      47.382
2014    9        2    14  51    4.25   513.6    3.8      47.350
2014    9        2    14  56    4.25   513.5    3.8      47.317
2014    9        2    15   2    4.25   513.3    3.8      47.284
2014    9        2    15   8    4.25   513.2    3.8      47.252
2014    9        2    15  13    4.25   513.0    3.8      47.219
2014    9        2    15  19    4.25   512.9    3.8      47.187
2014    9        2    15  24    4.25   512.7    3.8      47.155
2014    9        2    15  30    4.24   512.6    3.8      47.123
2014    9        2    15  36    4.24   512.4    3.8      47.092
2014    9        2    15  41    4.24   512.3    3.8      47.060
2014    9        2    15  47    4.24   512.1    3.8      47.029
2014    9        2    15  53    4.24   512.0    3.8      46.998
2014    9        2    15  58    4.24   511.8    3.8      46.967
2014    9        2    16   4    4.23   511.6    3.8      46.937
2014    9        2    16   9    4.23   511.5    3.8      46.906
2014    9        2    16  15    4.23   511.3    3.8      46.876
2014    9        2    16  21    4.23   511.2    3.8      46.846
2014    9        2    16  26    4.23   511.0    3.8      46.815
2014    9        2    16  32    4.23   510.8    3.8      46.784
2014    9        2    16  37    4.23   510.7    3.8      46.752
2014    9        2    16  43    4.22   510.5    3.8      46.721
2014    9        2    16  49    4.22   510.4    3.8      46.689
2014    9        2    16  54    4.22   510.2    3.8      46.657
2014    9        2    17   0    4.22   510.0    3.8      46.626
2014    9        2    17   6    4.22   509.9    3.8      46.594
2014    9        2    17  11    4.22   509.7    3.8      46.563
2014    9        2    17  17    4.21   509.5    3.8      46.531
2014    9        2    17  22    4.21   509.4    3.8      46.500
2014    9        2    17  28    4.21   509.2    3.8      46.470
2014    9        2    17  34    4.21   509.0    3.8      46.440
2014    9        2    17  39    4.21   508.8    3.8      46.410
2014    9        2    17  45    4.21   508.7    3.8      46.382
2014    9        2    17  51    4.21   508.5    3.8      46.353
2014    9        2    17  56    4.20   508.3    3.8      46.326
2014    9        2    18   2    4.20   508.2    3.8      46.300
2014    9        2    18   7    4.20   508.0    3.8      46.273
2014    9        2    18  13    4.20   507.8    3.8      46.248
2014    9        2    18  19    4.20   507.6    3.8      46.224
2014    9        2    18  24    4.20   507.5    3.8      46.202
2014    9        2    18  30    4.20   507.3    3.8      46.180
2014    9        2    18  35    4.20   507.1    3.8      46.160
2014    9        2    18  41    4.19   506.9    3.8      46.141
2014    9        2    18  47    4.19   506.8    3.8      46.123
2014    9        2    18  52    4.19   506.6    3.8      46.105
2014    9        2    18  58    4.19   506.4    3.8      46.088
2014    9        2    19   4    4.19   506.3    3.8      46.070
2014    9        2    19   9    4.19   506.1    3.8      46.052
2014    9        2    19  15    4.19   505.9    3.8      46.034
2014    9        2    19  20    4.19   505.7    3.8      46.016
2014    9        2    19  26    4.18   505.5    3.8      45.998
2014    9        2    19  32    4.18   505.4    3.8      45.979
2014    9        2    19  37    4.18   505.2    3.8      45.961
2014    9        2    19  43    4.18   505.0    3.8      45.943
2014    9        2    19  49    4.18   504.8    3.8      45.925
2014    9        2    19  54    4.18   504.7    3.8      45.906
2014    9        2    20   0    4.18   504.5    3.8      45.888
2014    9        2    20   5    4.18   504.3    3.8      45.869
2014    9        2    20  11    4.18   504.2    3.8      45.850
2014    9        2    20  17    4.17   504.0    3.8      45.830
2014    9        2    20  22    4.17   503.8    3.8      45.809
2014    9        2    20  28    4.17   503.6    3.8      45.788
2014    9        2    20  33    4.17   503.5    3.8      45.767
2014    9        2    20  39    4.17   503.3    3.8      45.745
2014    9        2    20  45    4.17   503.1    3.8      45.722
2014    9        2    20  50    4.17   502.9    3.8      45.699
2014    9        2    20  56    4.17   502.8    3.8      45.675
2014    9        2    21   2    4.16   502.6    3.8      45.651
2014    9        2    21   7    4.16   502.4    3.8      45.627
2014    9        2    21  13    4.16   502.2    3.8      45.603
2014    9        2    21  18    4.16   502.1    3.8      45.578
2014    9        2    21  24    4.16   501.9    3.8      45.553
2014    9        2    21  30    4.16   501.7    3.8      45.528
2014    9        2    21  35    4.16   501.5    3.8      45.503
2014    9        2    21  41    4.16   501.4    3.9      45.478
2014    9        2    21  47    4.15   501.2    3.9      45.453
2014    9        2    21  52    4.15   501.0    3.9      45.428
2014    9        2    21  58    4.15   500.8    3.9      45.404
2014    9        2    22   3    4.15   500.7    3.9      45.380
2014    9        2    22   9    4.15   500.5    3.9      45.357
2014    9        2    22  15    4.15   500.3    3.9      45.335
2014    9        2    22  20    4.15   500.1    3.9      45.313
2014    9        2    22  26    4.15   500.0    3.9      45.291
2014    9        2    22  31    4.15   499.8    3.9      45.270
2014    9        2    22  37    4.14   499.6    3.9      45.248
2014    9        2    22  43    4.14   499.5    3.9      45.225
2014    9        2    22  48    4.14   499.3    3.9      45.202
2014    9        2    22  54    4.14   499.2    3.9      45.179
2014    9        2    23   0    4.14   499.0    3.9      45.155
2014    9        2    23   5    4.14   498.8    3.9      45.130
2014    9        2    23  11    4.14   498.7    3.9      45.106
2014    9        2    23  16    4.14   498.5    3.9      45.080
2014    9        2    23  22    4.14   498.3    3.9      45.054
2014    9        2    23  28    4.13   498.2    3.9      45.028
2014    9        2    23  33    4.13   498.0    3.9      45.001
2014    9        2    23  39    4.13   497.9    3.9      44.973
2014    9        2    23  45    4.13   497.7    3.9      44.945
2014    9        2    23  50    4.13   497.5    3.9      44.916
2014    9        2    23  56    4.13   497.4    3.9      44.887
2014    9        3     0   1    4.13   497.2    3.9      44.858
2014    9        3     0   7    4.13   497.0    3.9      44.828
2014    9        3     0  13    4.12   496.9    3.9      44.798
2014    9        3     0  18    4.12   496.7    3.9      44.767
2014    9        3     0  24    4.12   496.6    3.9      44.736
2014    9        3     0  30    4.12   496.4    3.9      44.705
2014    9        3     0  35    4.12   496.2    3.9      44.674
2014    9        3     0  41    4.12   496.1    3.9      44.642
2014    9        3     0  46    4.12   495.9    3.9      44.610
2014    9        3     0  52    4.12   495.7    3.9      44.578
2014    9        3     0  58    4.11   495.6    3.9      44.546
2014    9        3     1   3    4.11   495.4    3.9      44.514
2014    9        3     1   9    4.11   495.2    3.9      44.481
2014    9        3     1  14    4.11   495.1    3.9      44.449
2014    9        3     1  20    4.11   494.9    3.9      44.417
2014    9        3     1  26    4.11   494.7    3.9      44.385
2014    9        3     1  31    4.11   494.5    3.9      44.353
2014    9        3     1  37    4.10   494.4    3.9      44.321
2014    9        3     1  43    4.10   494.2    3.9      44.289
2014    9        3     1  48    4.10   494.0    3.9      44.258
2014    9        3     1  54    4.10   493.9    3.9      44.227
2014    9        3     1  59    4.10   493.7    3.9      44.196
2014    9        3     2   5    4.10   493.5    3.9      44.165
2014    9        3     2  11    4.10   493.3    3.9      44.134
2014    9        3     2  16    4.10   493.2    3.9      44.105
2014    9        3     2  22    4.09   493.0    3.9      44.075
2014    9        3     2  28    4.09   492.8    3.9      44.046
2014    9        3     2  33    4.09   492.6    3.9      44.017
2014    9        3     2  39    4.09   492.5    3.9      43.988
2014    9        3     2  44    4.09   492.3    3.9      43.960
2014    9        3     2  50    4.09   492.1    3.9      43.933
2014    9        3     2  56    4.09   491.9    3.9      43.907
2014    9        3     3   1    4.09   491.7    3.9      43.881
2014    9        3     3   7    4.08   491.6    3.9      43.855
2014    9        3     3  12    4.08   491.4    3.9      43.830
2014    9        3     3  18    4.08   491.2    3.9      43.805
2014    9        3     3  24    4.08   491.0    3.9      43.780
2014    9        3     3  29    4.08   490.9    3.9      43.755
2014    9        3     3  35    4.08   490.7    3.9      43.730
2014    9        3     3  41    4.08   490.5    3.9      43.705
2014    9        3     3  46    4.08   490.3    3.9      43.679
2014    9        3     3  52    4.08   490.1    3.9      43.654
2014    9        3     3  57    4.07   489.9    3.9      43.628
2014    9        3     4   3    4.07   489.8    3.9      43.603
2014    9        3     4   9    4.07   489.6    3.9      43.577
2014    9        3     4  14    4.07   489.4    3.9      43.551
2014    9        3     4  20    4.07   489.2    3.9      43.526
2014    9        3     4  26    4.07   489.0    3.9      43.501
2014    9        3     4  31    4.07   488.8    3.9      43.475
2014    9        3     4  37    4.07   488.6    3.9      43.451
2014    9        3     4  42    4.07   488.4    3.9      43.426
2014    9        3     4  48    4.07   488.2    3.9      43.402
2014    9        3     4  54    4.06   488.0    3.9      43.378
2014    9        3     4  59    4.06   487.9    3.9      43.355
2014    9        3     5   5    4.06   487.7    3.9      43.333
2014    9        3     5  10    4.06   487.5    3.9      43.312
2014    9        3     5  16    4.06   487.3    3.9      43.292
2014    9        3     5  22    4.06   487.1    3.9      43.273
2014    9        3     5  27    4.06   486.9    3.9      43.254
2014    9        3     5  33    4.06   486.7    3.9      43.237
2014    9        3     5  39    4.06   486.5    3.9      43.220
2014    9        3     5  44    4.06   486.3    3.9      43.203
2014    9        3     5  50    4.06   486.1    3.9      43.186
2014    9        3     5  55    4.06   486.0    3.9      43.169
2014    9        3     6   1    4.05   485.8    3.9      43.152
2014    9        3     6   7    4.05   485.6    3.9      43.135
2014    9        3     6  12    4.05   485.4    3.9      43.118
2014    9        3     6  18    4.05   485.2    3.9      43.101
2014    9        3     6  24    4.05   485.0    3.9      43.084
2014    9        3     6  29    4.05   484.9    3.9      43.067
2014    9        3     6  35    4.05   484.7    3.9      43.050
2014    9        3     6  40    4.05   484.5    3.9      43.032
2014    9        3     6  46    4.05   484.3    3.9      43.015
2014    9        3     6  52    4.05   484.1    4.0      42.997
2014    9        3     6  57    4.05   484.0    4.0      42.979
2014    9        3     7   3    4.05   483.8    4.0      42.961
2014    9        3     7   9    4.05   483.6    4.0      42.942
2014    9        3     7  14    4.05   483.4    4.0      42.923
2014    9        3     7  20    4.04   483.3    4.0      42.903
2014    9        3     7  25    4.04   483.1    4.0      42.883
2014    9        3     7  31    4.04   482.9    4.0      42.862
2014    9        3     7  37    4.04   482.7    4.0      42.841
2014    9        3     7  42    4.04   482.6    4.0      42.820
2014    9        3     7  48    4.04   482.4    4.0      42.797
2014    9        3     7  53    4.04   482.2    4.0      42.775
2014    9        3     7  59    4.04   482.0    4.0      42.752
2014    9        3     8   5    4.04   481.9    4.0      42.729
2014    9        3     8  10    4.04   481.7    4.0      42.705
2014    9        3     8  16    4.04   481.5    4.0      42.681
2014    9        3     8  22    4.04   481.3    4.0      42.656
2014    9        3     8  27    4.03   481.1    4.0      42.631
2014    9        3     8  33    4.03   481.0    4.0      42.606
2014    9        3     8  38    4.03   480.8    4.0      42.580
2014    9        3     8  44    4.03   480.6    4.0      42.555
2014    9        3     8  50    4.03   480.4    4.0      42.529
2014    9        3     8  55    4.03   480.3    4.0      42.503
2014    9        3     9   1    4.03   480.1    4.0      42.477
2014    9        3     9   6    4.03   479.9    4.0      42.452
2014    9        3     9  12    4.03   479.7    4.0      42.426
2014    9        3     9  18    4.03   479.6    4.0      42.400
2014    9        3     9  23    4.03   479.4    4.0      42.374
2014    9        3     9  29    4.02   479.2    4.0      42.349
2014    9        3     9  35    4.02   479.0    4.0      42.323
2014    9        3     9  40    4.02   478.9    4.0      42.297
2014    9        3     9  46    4.02   478.7    4.0      42.270
2014    9        3     9  51    4.02   478.5    4.0      42.244
2014    9        3     9  57    4.02   478.4    4.0      42.217
2014    9        3    10   3    4.02   478.2    4.0      42.190
2014    9        3    10   8    4.02   478.0    4.0      42.163
2014    9        3    10  14    4.02   477.8    4.0      42.136
2014    9        3    10  20    4.02   477.7    4.0      42.109
2014    9        3    10  25    4.02   477.5    4.0      42.082
2014    9        3    10  31    4.01   477.3    4.0      42.055
2014    9        3    10  36    4.01   477.2    4.0      42.027
2014    9        3    10  42    4.01   477.0    4.0      42.000
2014    9        3    10  48    4.01   476.8    4.0      41.972
2014    9        3    10  53    4.01   476.6    4.0      41.944
2014    9        3    10  59    4.01   476.5    4.0      41.916
2014    9        3    11   4    4.01   476.3    4.0      41.888
2014    9        3    11  10    4.01   476.1    4.0      41.860
2014    9        3    11  16    4.01   476.0    4.0      41.832
2014    9        3    11  21    4.01   475.8    4.0      41.803
2014    9        3    11  27    4.01   475.6    4.0      41.775
2014    9        3    11  33    4.00   475.4    4.0      41.746
2014    9        3    11  38    4.00   475.3    4.0      41.717
2014    9        3    11  44    4.00   475.1    4.0      41.688
2014    9        3    11  49    4.00   474.9    4.0      41.659
2014    9        3    11  55    4.00   474.7    4.0      41.630
2014    9        3    12   1    4.00   474.5    4.0      41.601
2014    9        3    12   6    4.00   474.4    4.0      41.572
2014    9        3    12  12    4.00   474.2    4.0      41.544
2014    9        3    12  18    4.00   474.0    4.0      41.515
2014    9        3    12  23    4.00   473.8    4.0      41.486
2014    9        3    12  29    4.00   473.6    4.0      41.458
2014    9        3    12  34    4.00   473.5    4.0      41.430
2014    9        3    12  40    3.99   473.3    4.0      41.403
2014    9        3    12  46    3.99   473.1    4.0      41.375
2014    9        3    12  51    3.99   472.9    4.0      41.349
2014    9        3    12  57    3.99   472.7    4.0      41.322
2014    9        3    13   2    3.99   472.6    4.0      41.296
2014    9        3    13   8    3.99   472.4    4.0      41.270
2014    9        3    13  14    3.99   472.2    4.0      41.245
2014    9        3    13  19    3.99   472.0    4.0      41.221
2014    9        3    13  25    3.99   471.8    4.0      41.197
2014    9        3    13  31    3.99   471.7    4.0      41.172
2014    9        3    13  36    3.99   471.5    4.0      41.149
2014    9        3    13  42    3.99   471.3    4.0      41.126
2014    9        3    13  47    3.99   471.1    4.0      41.104
2014    9        3    13  53    3.99   470.9    4.0      41.082
2014    9        3    13  59    3.99   470.8    4.1      41.060
2014    9        3    14   4    3.98   470.6    4.1      41.039
2014    9        3    14  10    3.98   470.4    4.1      41.018
2014    9        3    14  16    3.98   470.2    4.1      40.996
2014    9        3    14  21    3.98   470.1    4.1      40.975
2014    9        3    14  27    3.98   469.9    4.1      40.954
2014    9        3    14  32    3.98   469.7    4.1      40.932
2014    9        3    14  38    3.98   469.5    4.1      40.911
2014    9        3    14  44    3.98   469.3    4.1      40.889
2014    9        3    14  49    3.98   469.2    4.1      40.867
2014    9        3    14  55    3.98   469.0    4.1      40.846
2014    9        3    15   0    3.98   468.8    4.1      40.824
2014    9        3    15   6    3.98   468.6    4.1      40.801
2014    9        3    15  12    3.98   468.4    4.1      40.779
2014    9        3    15  17    3.98   468.2    4.1      40.757
2014    9        3    15  23    3.98   468.1    4.1      40.735
2014    9        3    15  29    3.98   467.9    4.1      40.712
2014    9        3    15  34    3.98   467.7    4.1      40.690
2014    9        3    15  40    3.98   467.5    4.1      40.668
2014    9        3    15  45    3.97   467.3    4.1      40.647
2014    9        3    15  51    3.97   467.1    4.1      40.625
2014    9        3    15  57    3.97   467.0    4.1      40.603
2014    9        3    16   2    3.97   466.8    4.1      40.582
2014    9        3    16   8    3.97   466.6    4.1      40.561
2014    9        3    16  14    3.97   466.4    4.1      40.541
2014    9        3    16  19    3.97   466.2    4.1      40.521
2014    9        3    16  25    3.97   466.1    4.1      40.501
2014    9        3    16  30    3.97   465.9    4.1      40.481
2014    9        3    16  36    3.97   465.7    4.1      40.462
2014    9        3    16  42    3.97   465.5    4.1      40.443
2014    9        3    16  47    3.97   465.4    4.1      40.423
2014    9        3    16  53    3.97   465.2    4.1      40.404
2014    9        3    16  58    3.97   465.0    4.1      40.385
2014    9        3    17   4    3.97   464.8    4.1      40.365
2014    9        3    17  10    3.97   464.7    4.1      40.346
2014    9        3    17  15    3.97   464.5    4.1      40.326
2014    9        3    17  21    3.97   464.3    4.2      40.306
2014    9        3    17  27    3.97   464.2    4.2      40.286
2014    9        3    17  32    3.97   464.0    4.2      40.266
2014    9        3    17  38    3.97   463.8    4.2      40.245
2014    9        3    17  43    3.97   463.6    4.2      40.225
2014    9        3    17  49    3.97   463.5    4.2      40.203
2014    9        3    17  55    3.96   463.3    4.2      40.182
2014    9        3    18   0    3.96   463.1    4.2      40.161
2014    9        3    18   6    3.96   462.9    4.2      40.139
2014    9        3    18  11    3.96   462.8    4.2      40.117
2014    9        3    18  17    3.96   462.6    4.2      40.094
2014    9        3    18  23    3.96   462.4    4.2      40.072
2014    9        3    18  28    3.96   462.3    4.2      40.049
2014    9        3    18  34    3.96   462.1    4.2      40.026
2014    9        3    18  40    3.96   461.9    4.2      40.003
2014    9        3    18  45    3.96   461.8    4.2      39.979
2014    9        3    18  51    3.96   461.6    4.2      39.956
2014    9        3    18  56    3.96   461.4    4.2      39.932
2014    9        3    19   2    3.96   461.2    4.2      39.907
2014    9        3    19   8    3.96   461.1    4.2      39.883
2014    9        3    19  13    3.96   460.9    4.2      39.858
2014    9        3    19  19    3.96   460.7    4.2      39.834
2014    9        3    19  25    3.96   460.6    4.2      39.808
2014    9        3    19  30    3.96   460.4    4.2      39.783
2014    9        3    19  36    3.96   460.2    4.2      39.758
2014    9        3    19  41    3.96   460.1    4.2      39.732
2014    9        3    19  47    3.95   459.9    4.2      39.706
2014    9        3    19  53    3.95   459.7    4.2      39.680
2014    9        3    19  58    3.95   459.6    4.2      39.654
2014    9        3    20   4    3.95   459.4    4.2      39.628
2014    9        3    20  10    3.95   459.2    4.2      39.602
2014    9        3    20  15    3.95   459.1    4.2      39.575
2014    9        3    20  21    3.95   458.9    4.2      39.549
2014    9        3    20  26    3.95   458.7    4.2      39.523
2014    9        3    20  32    3.95   458.6    4.2      39.496
2014    9        3    20  38    3.95   458.4    4.2      39.469
2014    9        3    20  43    3.95   458.2    4.2      39.443
2014    9        3    20  49    3.95   458.1    4.2      39.416
2014    9        3    20  54    3.95   457.9    4.2      39.389
2014    9        3    21   0    3.95   457.7    4.2      39.362
2014    9        3    21   6    3.95   457.6    4.2      39.336
2014    9        3    21  11    3.95   457.4    4.2      39.309
2014    9        3    21  17    3.95   457.2    4.2      39.282
2014    9        3    21  23    3.94   457.1    4.2      39.255
2014    9        3    21  28    3.94   456.9    4.2      39.228
2014    9        3    21  34    3.94   456.7    4.2      39.201
2014    9        3    21  39    3.94   456.6    4.2      39.174
2014    9        3    21  45    3.94   456.4    4.2      39.147
2014    9        3    21  51    3.94   456.2    4.2      39.120
2014    9        3    21  56    3.94   456.1    4.2      39.092
2014    9        3    22   2    3.94   455.9    4.2      39.065
2014    9        3    22   8    3.94   455.7    4.2      39.038
2014    9        3    22  13    3.94   455.5    4.2      39.011
2014    9        3    22  19    3.94   455.4    4.2      38.984
2014    9        3    22  24    3.94   455.2    4.2      38.957
2014    9        3    22  30    3.94   455.0    4.3      38.930
2014    9        3    22  36    3.94   454.9    4.3      38.903
2014    9        3    22  41    3.94   454.7    4.3      38.876
2014    9        3    22  47    3.94   454.5    4.3      38.849
2014    9        3    22  52    3.94   454.4    4.3      38.823
2014    9        3    22  58    3.94   454.2    4.3      38.796
2014    9        3    23   4    3.94   454.0    4.3      38.770
2014    9        3    23   9    3.93   453.8    4.3      38.744
2014    9        3    23  15    3.93   453.7    4.3      38.718
2014    9        3    23  21    3.93   453.5    4.3      38.693
2014    9        3    23  26    3.93   453.3    4.3      38.668
2014    9        3    23  32    3.93   453.1    4.3      38.642
2014    9        3    23  37    3.93   453.0    4.3      38.618
2014    9        3    23  43    3.93   452.8    4.3      38.593
2014    9        3    23  49    3.93   452.6    4.3      38.568
2014    9        3    23  54    3.93   452.5    4.3      38.544
2014    9        4     0   0    3.93   452.3    4.3      38.520
2014    9        4     0   6    3.93   452.1    4.3      38.496
2014    9        4     0  11    3.93   452.0    4.3      38.472
2014    9        4     0  17    3.93   451.8    4.3      38.448
2014    9        4     0  22    3.93   451.6    4.3      38.424
2014    9        4     0  28    3.93   451.5    4.3      38.401
2014    9        4     0  34    3.93   451.3    4.3      38.377
2014    9        4     0  39    3.93   451.1    4.3      38.354
2014    9        4     0  45    3.93   451.0    4.3      38.330
2014    9        4     0  50    3.93   450.8    4.3      38.307
2014    9        4     0  56    3.93   450.6    4.3      38.284
2014    9        4     1   2    3.93   450.4    4.3      38.260
2014    9        4     1   7    3.93   450.3    4.3      38.237
2014    9        4     1  13    3.93   450.1    4.3      38.214
2014    9        4     1  19    3.93   449.9    4.3      38.190
2014    9        4     1  24    3.93   449.8    4.3      38.167
2014    9        4     1  30    3.93   449.6    4.3      38.143
2014    9        4     1  35    3.93   449.4    4.3      38.120
2014    9        4     1  41    3.93   449.2    4.3      38.096
2014    9        4     1  47    3.93   449.1    4.4      38.072
2014    9        4     1  52    3.93   448.9    4.4      38.049
2014    9        4     1  58    3.93   448.7    4.4      38.025
2014    9        4     2   4    3.93   448.6    4.4      38.002
2014    9        4     2   9    3.92   448.4    4.4      37.978
2014    9        4     2  15    3.92   448.2    4.4      37.954
2014    9        4     2  20    3.92   448.0    4.4      37.930
2014    9        4     2  26    3.92   447.9    4.4      37.906
2014    9        4     2  32    3.92   447.7    4.4      37.882
2014    9        4     2  37    3.92   447.5    4.4      37.858
2014    9        4     2  43    3.92   447.4    4.4      37.834
2014    9        4     2  48    3.92   447.2    4.4      37.810
2014    9        4     2  54    3.92   447.0    4.4      37.785
2014    9        4     3   0    3.92   446.8    4.4      37.761
2014    9        4     3   5    3.92   446.7    4.4      37.737
2014    9        4     3  11    3.92   446.5    4.4      37.712
2014    9        4     3  17    3.92   446.3    4.4      37.688
2014    9        4     3  22    3.92   446.2    4.4      37.663
2014    9        4     3  28    3.92   446.0    4.4      37.639
2014    9        4     3  33    3.92   445.8    4.4      37.614
2014    9        4     3  39    3.92   445.6    4.4      37.589
2014    9        4     3  45    3.92   445.5    4.4      37.565
2014    9        4     3  50    3.92   445.3    4.4      37.540
2014    9        4     3  56    3.92   445.1    4.4      37.515
2014    9        4     4   2    3.92   445.0    4.4      37.490
2014    9        4     4   7    3.92   444.8    4.4      37.465
2014    9        4     4  13    3.92   444.6    4.4      37.439
2014    9        4     4  18    3.92   444.5    4.4      37.414
2014    9        4     4  24    3.92   444.3    4.4      37.389
2014    9        4     4  30    3.92   444.1    4.4      37.364
2014    9        4     4  35    3.92   444.0    4.4      37.338
2014    9        4     4  41    3.92   443.8    4.4      37.313
2014    9        4     4  46    3.92   443.6    4.4      37.287
2014    9        4     4  52    3.92   443.5    4.4      37.262
2014    9        4     4  58    3.91   443.3    4.4      37.236
2014    9        4     5   3    3.91   443.1    4.4      37.210
2014    9        4     5   9    3.91   443.0    4.4      37.184
2014    9        4     5  15    3.91   442.8    4.4      37.159
2014    9        4     5  20    3.91   442.6    4.5      37.133
2014    9        4     5  26    3.91   442.5    4.5      37.107
2014    9        4     5  31    3.91   442.3    4.5      37.081
2014    9        4     5  37    3.91   442.1    4.5      37.054
2014    9        4     5  43    3.91   442.0    4.5      37.028
2014    9        4     5  48    3.91   441.8    4.5      37.002
2014    9        4     5  54    3.91   441.6    4.5      36.975
2014    9        4     6   0    3.91   441.5    4.5      36.949
2014    9        4     6   5    3.91   441.3    4.5      36.923
2014    9        4     6  11    3.91   441.1    4.5      36.896
2014    9        4     6  16    3.91   441.0    4.5      36.869
2014    9        4     6  22    3.91   440.8    4.5      36.843
2014    9        4     6  28    3.91   440.6    4.5      36.816
2014    9        4     6  33    3.91   440.4    4.5      36.789
2014    9        4     6  39    3.91   440.3    4.5      36.763
2014    9        4     6  44    3.91   440.1    4.5      36.736
2014    9        4     6  50    3.91   439.9    4.5      36.709
2014    9        4     6  56    3.91   439.8    4.5      36.682
2014    9        4     7   1    3.91   439.6    4.5      36.655
2014    9        4     7   7    3.91   439.4    4.5      36.628
2014    9        4     7  13    3.91   439.3    4.5      36.602
2014    9        4     7  18    3.91   439.1    4.5      36.575
2014    9        4     7  24    3.90   438.9    4.5      36.548
2014    9        4     7  29    3.90   438.8    4.5      36.521
2014    9        4     7  35    3.90   438.6    4.5      36.495
2014    9        4     7  41    3.90   438.4    4.5      36.468
2014    9        4     7  46    3.90   438.3    4.5      36.441
2014    9        4     7  52    3.90   438.1    4.5      36.415
2014    9        4     7  58    3.90   437.9    4.5      36.388
2014    9        4     8   3    3.90   437.8    4.5      36.362
2014    9        4     8   9    3.90   437.6    4.5      36.335
2014    9        4     8  14    3.90   437.4    4.5      36.309
2014    9        4     8  20    3.90   437.3    4.5      36.283
2014    9        4     8  26    3.90   437.1    4.5      36.257
2014    9        4     8  31    3.90   436.9    4.5      36.231
2014    9        4     8  37    3.90   436.7    4.5      36.205
2014    9        4     8  42    3.90   436.6    4.5      36.178
2014    9        4     8  48    3.90   436.4    4.5      36.153
2014    9        4     8  54    3.90   436.2    4.5      36.127
2014    9        4     8  59    3.90   436.1    4.6      36.101
2014    9        4     9   5    3.90   435.9    4.6      36.075
2014    9        4     9  11    3.90   435.7    4.6      36.049
2014    9        4     9  16    3.90   435.6    4.6      36.023
2014    9        4     9  22    3.90   435.4    4.6      35.998
2014    9        4     9  27    3.90   435.2    4.6      35.972
2014    9        4     9  33    3.90   435.1    4.6      35.946
2014    9        4     9  39    3.90   434.9    4.6      35.920
2014    9        4     9  44    3.90   434.7    4.6      35.895
2014    9        4     9  50    3.90   434.5    4.6      35.869
2014    9        4     9  56    3.90   434.4    4.6      35.843
2014    9        4    10   1    3.90   434.2    4.6      35.818
2014    9        4    10   7    3.90   434.0    4.6      35.792
2014    9        4    10  12    3.90   433.9    4.6      35.766
2014    9        4    10  18    3.90   433.7    4.6      35.740
2014    9        4    10  24    3.90   433.5    4.6      35.715
2014    9        4    10  29    3.90   433.4    4.6      35.689
2014    9        4    10  35    3.90   433.2    4.6      35.663
2014    9        4    10  40    3.90   433.0    4.6      35.637
2014    9        4    10  46    3.90   432.8    4.6      35.611
2014    9        4    10  52    3.90   432.7    4.6      35.585
2014    9        4    10  57    3.90   432.5    4.6      35.559
2014    9        4    11   3    3.90   432.3    4.6      35.533
2014    9        4    11   9    3.90   432.2    4.6      35.507
2014    9        4    11  14    3.90   432.0    4.6      35.480
2014    9        4    11  20    3.90   431.8    4.6      35.454
2014    9        4    11  25    3.90   431.6    4.6      35.428
2014    9        4    11  31    3.90   431.5    4.6      35.401
2014    9        4    11  37    3.90   431.3    4.6      35.375
2014    9        4    11  42    3.90   431.1    4.7      35.349
2014    9        4    11  48    3.90   431.0    4.7      35.322
2014    9        4    11  54    3.90   430.8    4.7      35.295
2014    9        4    11  59    3.90   430.6    4.7      35.269
2014    9        4    12   5    3.90   430.4    4.7      35.242
2014    9        4    12  10    3.90   430.3    4.7      35.215
2014    9        4    12  16    3.90   430.1    4.7      35.189
2014    9        4    12  22    3.90   429.9    4.7      35.162
2014    9        4    12  27    3.90   429.7    4.7      35.135
2014    9        4    12  33    3.90   429.6    4.7      35.108
2014    9        4    12  38    3.90   429.4    4.7      35.081
2014    9        4    12  44    3.90   429.2    4.7      35.054
2014    9        4    12  50    3.89   429.1    4.7      35.027
2014    9        4    12  55    3.89   428.9    4.7      35.000
2014    9        4    13   1    3.89   428.7    4.7      34.973
2014    9        4    13   7    3.89   428.5    4.7      34.946
2014    9        4    13  12    3.89   428.4    4.7      34.919
2014    9        4    13  18    3.89   428.2    4.7      34.892
2014    9        4    13  23    3.89   428.0    4.7      34.865
2014    9        4    13  29    3.89   427.8    4.7      34.838
2014    9        4    13  35    3.89   427.7    4.7      34.811
2014    9        4    13  40    3.89   427.5    4.7      34.784
2014    9        4    13  46    3.89   427.3    4.7      34.757
2014    9        4    13  52    3.89   427.1    4.7      34.730
2014    9        4    13  57    3.89   427.0    4.7      34.703
2014    9        4    14   3    3.89   426.8    4.7      34.675
2014    9        4    14   8    3.89   426.6    4.7      34.648
2014    9        4    14  14    3.89   426.5    4.7      34.621
2014    9        4    14  20    3.89   426.3    4.7      34.594
2014    9        4    14  25    3.89   426.1    4.8      34.567
2014    9        4    14  31    3.89   425.9    4.8      34.540
2014    9        4    14  36    3.89   425.8    4.8      34.513
2014    9        4    14  42    3.89   425.6    4.8      34.486
2014    9        4    14  48    3.89   425.4    4.8      34.460
2014    9        4    14  53    3.89   425.2    4.8      34.433
2014    9        4    14  59    3.89   425.1    4.8      34.406
2014    9        4    15   5    3.89   424.9    4.8      34.379
2014    9        4    15  10    3.89   424.7    4.8      34.352
2014    9        4    15  16    3.89   424.6    4.8      34.326
2014    9        4    15  21    3.89   424.4    4.8      34.299
2014    9        4    15  27    3.89   424.2    4.8      34.272
2014    9        4    15  33    3.89   424.0    4.8      34.246
2014    9        4    15  38    3.89   423.9    4.8      34.219
2014    9        4    15  44    3.89   423.7    4.8      34.193
2014    9        4    15  50    3.89   423.5    4.8      34.166
2014    9        4    15  55    3.89   423.3    4.8      34.140
2014    9        4    16   1    3.89   423.2    4.8      34.114
2014    9        4    16   6    3.89   423.0    4.8      34.088
2014    9        4    16  12    3.89   422.8    4.8      34.062
2014    9        4    16  18    3.89   422.6    4.8      34.035
2014    9        4    16  23    3.89   422.5    4.8      34.009
2014    9        4    16  29    3.89   422.3    4.8      33.983
2014    9        4    16  34    3.89   422.1    4.8      33.958
2014    9        4    16  40    3.89   421.9    4.8      33.932
2014    9        4    16  46    3.89   421.8    4.8      33.906
2014    9        4    16  51    3.89   421.6    4.8      33.880
2014    9        4    16  57    3.89   421.4    4.8      33.855
2014    9        4    17   3    3.89   421.3    4.9      33.829
2014    9        4    17   8    3.89   421.1    4.9      33.803
2014    9        4    17  14    3.89   420.9    4.9      33.778
2014    9        4    17  19    3.89   420.7    4.9      33.752
2014    9        4    17  25    3.89   420.6    4.9      33.727
2014    9        4    17  31    3.89   420.4    4.9      33.702
2014    9        4    17  36    3.89   420.2    4.9      33.676
2014    9        4    17  42    3.89   420.0    4.9      33.651
2014    9        4    17  48    3.89   419.9    4.9      33.626
2014    9        4    17  53    3.89   419.7    4.9      33.600
2014    9        4    17  59    3.89   419.5    4.9      33.575
2014    9        4    18   4    3.89   419.4    4.9      33.550
2014    9        4    18  10    3.89   419.2    4.9      33.525
2014    9        4    18  16    3.90   419.0    4.9      33.499
2014    9        4    18  21    3.90   418.8    4.9      33.474
2014    9        4    18  27    3.90   418.7    4.9      33.449
2014    9        4    18  32    3.90   418.5    4.9      33.424
2014    9        4    18  38    3.90   418.3    4.9      33.399
2014    9        4    18  44    3.90   418.1    4.9      33.373
2014    9        4    18  49    3.90   418.0    4.9      33.348
2014    9        4    18  55    3.90   417.8    4.9      33.323
2014    9        4    19   1    3.90   417.6    4.9      33.298
2014    9        4    19   6    3.90   417.5    4.9      33.272
2014    9        4    19  12    3.90   417.3    5.0      33.247
2014    9        4    19  17    3.90   417.1    5.0      33.222
2014    9        4    19  23    3.90   416.9    5.0      33.196
2014    9        4    19  29    3.90   416.8    5.0      33.171
2014    9        4    19  34    3.90   416.6    5.0      33.146
2014    9        4    19  40    3.90   416.4    5.0      33.120
2014    9        4    19  46    3.90   416.2    5.0      33.095
2014    9        4    19  51    3.90   416.1    5.0      33.069
2014    9        4    19  57    3.90   415.9    5.0      33.044
2014    9        4    20   2    3.90   415.7    5.0      33.018
2014    9        4    20   8    3.90   415.5    5.0      32.993
2014    9        4    20  14    3.90   415.4    5.0      32.967
2014    9        4    20  19    3.90   415.2    5.0      32.942
2014    9        4    20  25    3.90   415.0    5.0      32.916
2014    9        4    20  30    3.90   414.9    5.0      32.891
2014    9        4    20  36    3.90   414.7    5.0      32.865
2014    9        4    20  42    3.90   414.5    5.0      32.840
2014    9        4    20  47    3.90   414.3    5.0      32.814
2014    9        4    20  53    3.90   414.2    5.0      32.789
2014    9        4    20  59    3.90   414.0    5.0      32.763
2014    9        4    21   4    3.90   413.8    5.0      32.738
2014    9        4    21  10    3.90   413.6    5.0      32.712
2014    9        4    21  15    3.90   413.5    5.1      32.687
2014    9        4    21  21    3.90   413.3    5.1      32.662
2014    9        4    21  27    3.90   413.1    5.1      32.636
2014    9        4    21  32    3.91   412.9    5.1      32.611
2014    9        4    21  38    3.91   412.8    5.1      32.586
2014    9        4    21  44    3.91   412.6    5.1      32.560
2014    9        4    21  49    3.91   412.4    5.1      32.535
2014    9        4    21  55    3.91   412.2    5.1      32.510
2014    9        4    22   0    3.91   412.1    5.1      32.485
2014    9        4    22   6    3.91   411.9    5.1      32.460
2014    9        4    22  12    3.91   411.7    5.1      32.435
2014    9        4    22  17    3.91   411.6    5.1      32.410
2014    9        4    22  23    3.91   411.4    5.1      32.386
2014    9        4    22  28    3.91   411.2    5.1      32.361
2014    9        4    22  34    3.91   411.0    5.1      32.336
2014    9        4    22  40    3.91   410.9    5.1      32.312
2014    9        4    22  45    3.91   410.7    5.1      32.287
2014    9        4    22  51    3.91   410.5    5.1      32.263
2014    9        4    22  57    3.91   410.3    5.1      32.239
2014    9        4    23   2    3.91   410.2    5.1      32.215
2014    9        4    23   8    3.91   410.0    5.2      32.191
2014    9        4    23  13    3.91   409.8    5.2      32.166
2014    9        4    23  19    3.91   409.6    5.2      32.142
2014    9        4    23  25    3.91   409.5    5.2      32.119
2014    9        4    23  30    3.91   409.3    5.2      32.095
2014    9        4    23  36    3.92   409.1    5.2      32.071
2014    9        4    23  42    3.92   409.0    5.2      32.048
2014    9        4    23  47    3.92   408.8    5.2      32.024
2014    9        4    23  53    3.92   408.6    5.2      32.001
2014    9        4    23  58    3.92   408.4    5.2      31.978
2014    9        5     0   4    3.92   408.3    5.2      31.954
2014    9        5     0  10    3.92   408.1    5.2      31.931
2014    9        5     0  15    3.92   407.9    5.2      31.909
2014    9        5     0  21    3.92   407.7    5.2      31.886
2014    9        5     0  26    3.92   407.6    5.2      31.863
2014    9        5     0  32    3.92   407.4    5.2      31.840
2014    9        5     0  38    3.92   407.2    5.2      31.817
2014    9        5     0  43    3.92   407.1    5.2      31.795
2014    9        5     0  49    3.92   406.9    5.2      31.773
2014    9        5     0  55    3.92   406.7    5.3      31.750
2014    9        5     1   0    3.92   406.6    5.3      31.728
2014    9        5     1   6    3.93   406.4    5.3      31.706
2014    9        5     1  11    3.93   406.2    5.3      31.684
2014    9        5     1  17    3.93   406.0    5.3      31.662
2014    9        5     1  23    3.93   405.9    5.3      31.640
2014    9        5     1  28    3.93   405.7    5.3      31.618
2014    9        5     1  34    3.93   405.5    5.3      31.596
2014    9        5     1  40    3.93   405.4    5.3      31.575
2014    9        5     1  45    3.93   405.2    5.3      31.553
2014    9        5     1  51    3.93   405.0    5.3      31.532
2014    9        5     1  56    3.93   404.8    5.3      31.510
2014    9        5     2   2    3.93   404.7    5.3      31.489
2014    9        5     2   8    3.93   404.5    5.3      31.467
2014    9        5     2  13    3.94   404.3    5.3      31.446
2014    9        5     2  19    3.94   404.2    5.3      31.425
2014    9        5     2  24    3.94   404.0    5.3      31.404
2014    9        5     2  30    3.94   403.8    5.4      31.383
2014    9        5     2  36    3.94   403.7    5.4      31.362
2014    9        5     2  41    3.94   403.5    5.4      31.341
2014    9        5     2  47    3.94   403.3    5.4      31.320
2014    9        5     2  53    3.94   403.2    5.4      31.300
2014    9        5     2  58    3.94   403.0    5.4      31.279
2014    9        5     3   4    3.94   402.8    5.4      31.258
2014    9        5     3   9    3.94   402.7    5.4      31.238
2014    9        5     3  15    3.95   402.5    5.4      31.217
2014    9        5     3  21    3.95   402.3    5.4      31.197
2014    9        5     3  26    3.95   402.2    5.4      31.176
2014    9        5     3  32    3.95   402.0    5.4      31.156
2014    9        5     3  38    3.95   401.8    5.4      31.135
2014    9        5     3  43    3.95   401.7    5.4      31.115
2014    9        5     3  49    3.95   401.5    5.4      31.095
2014    9        5     3  54    3.95   401.3    5.4      31.075
2014    9        5     4   0    3.95   401.2    5.4      31.054
2014    9        5     4   6    3.95   401.0    5.5      31.034
2014    9        5     4  11    3.96   400.9    5.5      31.014
2014    9        5     4  17    3.96   400.7    5.5      30.994
2014    9        5     4  22    3.96   400.5    5.5      30.974
2014    9        5     4  28    3.96   400.4    5.5      30.954
2014    9        5     4  34    3.96   400.2    5.5      30.934
2014    9        5     4  39    3.96   400.0    5.5      30.915
2014    9        5     4  45    3.96   399.9    5.5      30.895
2014    9        5     4  51    3.96   399.7    5.5      30.875
2014    9        5     4  56    3.96   399.6    5.5      30.856
2014    9        5     5   2    3.97   399.4    5.5      30.836
2014    9        5     5   7    3.97   399.2    5.5      30.817
2014    9        5     5  13    3.97   399.1    5.5      30.797
2014    9        5     5  19    3.97   398.9    5.5      30.778
2014    9        5     5  24    3.97   398.7    5.5      30.759
2014    9        5     5  30    3.97   398.6    5.5      30.740
2014    9        5     5  36    3.97   398.4    5.5      30.721
2014    9        5     5  41    3.97   398.3    5.6      30.703
2014    9        5     5  47    3.98   398.1    5.6      30.684
2014    9        5     5  52    3.98   397.9    5.6      30.666
2014    9        5     5  58    3.98   397.8    5.6      30.647
2014    9        5     6   4    3.98   397.6    5.6      30.629
2014    9        5     6   9    3.98   397.5    5.6      30.611
2014    9        5     6  15    3.98   397.3    5.6      30.594
2014    9        5     6  20    3.98   397.1    5.6      30.576
2014    9        5     6  26    3.98   397.0    5.6      30.559
2014    9        5     6  32    3.99   396.8    5.6      30.542
2014    9        5     6  37    3.99   396.7    5.6      30.525
2014    9        5     6  43    3.99   396.5    5.6      30.508
2014    9        5     6  49    3.99   396.4    5.6      30.491
2014    9        5     6  54    3.99   396.2    5.6      30.475
2014    9        5     7   0    3.99   396.1    5.7      30.459
2014    9        5     7   5    3.99   395.9    5.7      30.443
2014    9        5     7  11    4.00   395.7    5.7      30.428
2014    9        5     7  17    4.00   395.6    5.7      30.412
2014    9        5     7  22    4.00   395.4    5.7      30.397
2014    9        5     7  28    4.00   395.3    5.7      30.382
2014    9        5     7  34    4.00   395.1    5.7      30.367
2014    9        5     7  39    4.00   395.0    5.7      30.353
2014    9        5     7  45    4.00   394.8    5.7      30.338
2014    9        5     7  50    4.01   394.7    5.7      30.324
2014    9        5     7  56    4.01   394.5    5.7      30.310
2014    9        5     8   2    4.01   394.4    5.7      30.296
2014    9        5     8   7    4.01   394.2    5.7      30.282
2014    9        5     8  13    4.01   394.1    5.7      30.269
2014    9        5     8  18    4.01   393.9    5.8      30.255
2014    9        5     8  24    4.02   393.8    5.8      30.242
2014    9        5     8  30    4.02   393.6    5.8      30.229
2014    9        5     8  35    4.02   393.5    5.8      30.216
2014    9        5     8  41    4.02   393.3    5.8      30.203
2014    9        5     8  47    4.02   393.2    5.8      30.191
2014    9        5     8  52    4.02   393.0    5.8      30.178
2014    9        5     8  58    4.02   392.9    5.8      30.166
2014    9        5     9   3    4.03   392.7    5.8      30.153
2014    9        5     9   9    4.03   392.6    5.8      30.141
2014    9        5     9  15    4.03   392.4    5.8      30.129
2014    9        5     9  20    4.03   392.3    5.8      30.117
2014    9        5     9  26    4.03   392.1    5.8      30.106
2014    9        5     9  32    4.03   392.0    5.8      30.094
2014    9        5     9  37    4.04   391.8    5.9      30.083
2014    9        5     9  43    4.04   391.7    5.9      30.071
2014    9        5     9  48    4.04   391.5    5.9      30.060
2014    9        5     9  54    4.04   391.4    5.9      30.049
2014    9        5    10   0    4.04   391.2    5.9      30.038
2014    9        5    10   5    4.04   391.1    5.9      30.027
2014    9        5    10  11    4.05   391.0    5.9      30.017
2014    9        5    10  16    4.05   390.8    5.9      30.006
2014    9        5    10  22    4.05   390.7    5.9      29.995
2014    9        5    10  28    4.05   390.5    5.9      29.985
2014    9        5    10  33    4.05   390.4    5.9      29.974
2014    9        5    10  39    4.05   390.2    5.9      29.963
2014    9        5    10  45    4.06   390.1    5.9      29.953
2014    9        5    10  50    4.06   390.0    5.9      29.943
2014    9        5    10  56    4.06   389.8    6.0      29.932
2014    9        5    11   1    4.06   389.7    6.0      29.922
2014    9        5    11   7    4.06   389.5    6.0      29.911
2014    9        5    11  13    4.07   389.4    6.0      29.901
2014    9        5    11  18    4.07   389.3    6.0      29.891
2014    9        5    11  24    4.07   389.1    6.0      29.880
2014    9        5    11  30    4.07   389.0    6.0      29.870
2014    9        5    11  35    4.07   388.8    6.0      29.859
2014    9        5    11  41    4.08   388.7    6.0      29.849
2014    9        5    11  46    4.08   388.6    6.0      29.839
2014    9        5    11  52    4.08   388.4    6.0      29.828
2014    9        5    11  58    4.08   388.3    6.0      29.818
2014    9        5    12   3    4.08   388.2    6.0      29.807
2014    9        5    12   9    4.09   388.0    6.0      29.797
2014    9        5    12  14    4.09   387.9    6.1      29.787
2014    9        5    12  20    4.09   387.8    6.1      29.776
2014    9        5    12  26    4.09   387.6    6.1      29.766
2014    9        5    12  31    4.09   387.5    6.1      29.756
2014    9        5    12  37    4.10   387.4    6.1      29.746
2014    9        5    12  43    4.10   387.2    6.1      29.735
2014    9        5    12  48    4.10   387.1    6.1      29.725
2014    9        5    12  54    4.10   387.0    6.1      29.715
2014    9        5    12  59    4.10   386.8    6.1      29.706
2014    9        5    13   5    4.11   386.7    6.1      29.696
2014    9        5    13  11    4.11   386.6    6.1      29.686
2014    9        5    13  16    4.11   386.4    6.1      29.676
2014    9        5    13  22    4.11   386.3    6.1      29.667
2014    9        5    13  28    4.11   386.2    6.1      29.657
2014    9        5    13  33    4.12   386.0    6.1      29.648
2014    9        5    13  39    4.12   385.9    6.2      29.639
2014    9        5    13  44    4.12   385.8    6.2      29.630
2014    9        5    13  50    4.12   385.7    6.2      29.622
2014    9        5    13  56    4.13   385.5    6.2      29.613
2014    9        5    14   1    4.13   385.4    6.2      29.605
2014    9        5    14   7    4.13   385.3    6.2      29.597
2014    9        5    14  12    4.13   385.2    6.2      29.589
2014    9        5    14  18    4.13   385.0    6.2      29.581
2014    9        5    14  24    4.14   384.9    6.2      29.574
2014    9        5    14  29    4.14   384.8    6.2      29.567
2014    9        5    14  35    4.14   384.7    6.2      29.559
2014    9        5    14  41    4.14   384.6    6.2      29.553
2014    9        5    14  46    4.15   384.4    6.2      29.546
2014    9        5    14  52    4.15   384.3    6.3      29.540
2014    9        5    14  57    4.15   384.2    6.3      29.533
2014    9        5    15   3    4.15   384.1    6.3      29.527
2014    9        5    15   9    4.15   384.0    6.3      29.522
2014    9        5    15  14    4.16   383.8    6.3      29.516
2014    9        5    15  20    4.16   383.7    6.3      29.511
2014    9        5    15  26    4.16   383.6    6.3      29.506
2014    9        5    15  31    4.16   383.5    6.3      29.501
2014    9        5    15  37    4.17   383.4    6.3      29.496
2014    9        5    15  42    4.17   383.3    6.3      29.492
2014    9        5    15  48    4.17   383.1    6.3      29.488
2014    9        5    15  54    4.17   383.0    6.3      29.484
2014    9        5    15  59    4.18   382.9    6.3      29.481
2014    9        5    16   5    4.18   382.8    6.4      29.477
2014    9        5    16  10    4.18   382.7    6.4      29.474
2014    9        5    16  16    4.18   382.6    6.4      29.471
2014    9        5    16  22    4.18   382.5    6.4      29.468
2014    9        5    16  27    4.19   382.3    6.4      29.466
2014    9        5    16  33    4.19   382.2    6.4      29.464
2014    9        5    16  39    4.19   382.1    6.4      29.462
2014    9        5    16  44    4.19   382.0    6.4      29.460
2014    9        5    16  50    4.20   381.9    6.4      29.459
2014    9        5    16  55    4.20   381.8    6.4      29.457
2014    9        5    17   1    4.20   381.7    6.4      29.456
2014    9        5    17   7    4.20   381.5    6.4      29.456
2014    9        5    17  12    4.21   381.4    6.4      29.455
2014    9        5    17  18    4.21   381.3    6.5      29.455
2014    9        5    17  24    4.21   381.2    6.5      29.455
2014    9        5    17  29    4.21   381.1    6.5      29.455
2014    9        5    17  35    4.22   381.0    6.5      29.455
2014    9        5    17  40    4.22   380.9    6.5      29.456
2014    9        5    17  46    4.22   380.8    6.5      29.456
2014    9        5    17  52    4.22   380.7    6.5      29.456
2014    9        5    17  57    4.23   380.6    6.5      29.457
2014    9        5    18   3    4.23   380.4    6.5      29.457
2014    9        5    18   8    4.23   380.3    6.5      29.458
2014    9        5    18  14    4.23   380.2    6.5      29.459
2014    9        5    18  20    4.24   380.1    6.5      29.459
2014    9        5    18  25    4.24   380.0    6.5      29.459
2014    9        5    18  31    4.24   379.9    6.6      29.460
2014    9        5    18  37    4.24   379.8    6.6      29.460
2014    9        5    18  42    4.25   379.7    6.6      29.460
2014    9        5    18  48    4.25   379.6    6.6      29.460
2014    9        5    18  53    4.25   379.5    6.6      29.460
2014    9        5    18  59    4.25   379.4    6.6      29.460
2014    9        5    19   5    4.26   379.3    6.6      29.459
2014    9        5    19  10    4.26   379.2    6.6      29.459
2014    9        5    19  16    4.26   379.1    6.6      29.459
2014    9        5    19  22    4.26   379.0    6.6      29.458
2014    9        5    19  27    4.27   378.9    6.6      29.457
2014    9        5    19  33    4.27   378.8    6.6      29.457
2014    9        5    19  38    4.27   378.7    6.6      29.456
2014    9        5    19  44    4.27   378.6    6.6      29.455
2014    9        5    19  50    4.28   378.5    6.7      29.454
2014    9        5    19  55    4.28   378.4    6.7      29.454
2014    9        5    20   1    4.28   378.3    6.7      29.453
2014    9        5    20   6    4.28   378.2    6.7      29.451
2014    9        5    20  12    4.29   378.1    6.7      29.450
2014    9        5    20  18    4.29   378.0    6.7      29.449
2014    9        5    20  23    4.29   377.9    6.7      29.448
2014    9        5    20  29    4.30   377.8    6.7      29.447
2014    9        5    20  35    4.30   377.7    6.7      29.445
2014    9        5    20  40    4.30   377.6    6.7      29.444
2014    9        5    20  46    4.30   377.5    6.7      29.442
2014    9        5    20  51    4.31   377.4    6.7      29.441
2014    9        5    20  57    4.31   377.3    6.7      29.439
2014    9        5    21   3    4.31   377.2    6.7      29.437
2014    9        5    21   8    4.31   377.1    6.7      29.436
2014    9        5    21  14    4.32   377.0    6.7      29.434
2014    9        5    21  20    4.32   376.9    6.8      29.433
2014    9        5    21  25    4.32   376.8    6.8      29.431
2014    9        5    21  31    4.32   376.7    6.8      29.429
2014    9        5    21  36    4.33   376.6    6.8      29.428
2014    9        5    21  42    4.33   376.5    6.8      29.426
2014    9        5    21  48    4.33   376.4    6.8      29.425
2014    9        5    21  53    4.34   376.3    6.8      29.424
2014    9        5    21  59    4.34   376.2    6.8      29.422
2014    9        5    22   4    4.34   376.2    6.8      29.421
2014    9        5    22  10    4.34   376.1    6.8      29.420
2014    9        5    22  16    4.35   376.0    6.8      29.419
2014    9        5    22  21    4.35   375.9    6.8      29.419
2014    9        5    22  27    4.35   375.8    6.8      29.418
2014    9        5    22  33    4.35   375.7    6.8      29.418
2014    9        5    22  38    4.36   375.6    6.8      29.418
2014    9        5    22  44    4.36   375.5    6.9      29.418
2014    9        5    22  49    4.36   375.4    6.9      29.418
2014    9        5    22  55    4.37   375.3    6.9      29.419
2014    9        5    23   1    4.37   375.2    6.9      29.419
2014    9        5    23   6    4.37   375.2    6.9      29.420
2014    9        5    23  12    4.37   375.1    6.9      29.422
2014    9        5    23  18    4.38   375.0    6.9      29.423
2014    9        5    23  23    4.38   374.9    6.9      29.425
2014    9        5    23  29    4.38   374.8    6.9      29.427
2014    9        5    23  34    4.39   374.7    6.9      29.429
2014    9        5    23  40    4.39   374.6    6.9      29.431
2014    9        5    23  46    4.39   374.6    6.9      29.434
2014    9        5    23  51    4.40   374.5    6.9      29.437
2014    9        5    23  57    4.40   374.4    7.0      29.441
2014    9        6     0   2    4.40   374.3    7.0      29.445
2014    9        6     0   8    4.40   374.2    7.0      29.449
2014    9        6     0  14    4.41   374.1    7.0      29.454
2014    9        6     0  19    4.41   374.1    7.0      29.459
2014    9        6     0  25    4.41   374.0    7.0      29.465
2014    9        6     0  31    4.42   373.9    7.0      29.471
2014    9        6     0  36    4.42   373.8    7.0      29.477
2014    9        6     0  42    4.42   373.7    7.0      29.484
2014    9        6     0  47    4.42   373.7    7.0      29.491
2014    9        6     0  53    4.43   373.6    7.0      29.497
2014    9        6     0  59    4.43   373.5    7.0      29.504
2014    9        6     1   4    4.43   373.4    7.0      29.511
2014    9        6     1  10    4.44   373.3    7.0      29.518
2014    9        6     1  16    4.44   373.3    7.1      29.525
2014    9        6     1  21    4.44   373.2    7.1      29.532
2014    9        6     1  27    4.45   373.1    7.1      29.539
2014    9        6     1  32    4.45   373.0    7.1      29.546
2014    9        6     1  38    4.45   372.9    7.1      29.552
2014    9        6     1  44    4.45   372.9    7.1      29.558
2014    9        6     1  49    4.46   372.8    7.1      29.565
2014    9        6     1  55    4.46   372.7    7.1      29.571
2014    9        6     2   0    4.46   372.6    7.1      29.577
2014    9        6     2   6    4.47   372.5    7.1      29.584
2014    9        6     2  12    4.47   372.5    7.1      29.590
2014    9        6     2  17    4.47   372.4    7.1      29.596
2014    9        6     2  23    4.47   372.3    7.1      29.601
2014    9        6     2  29    4.48   372.2    7.1      29.607
2014    9        6     2  34    4.48   372.2    7.2      29.613
2014    9        6     2  40    4.48   372.1    7.2      29.619
2014    9        6     2  45    4.49   372.0    7.2      29.624
2014    9        6     2  51    4.49   371.9    7.2      29.630
2014    9        6     2  57    4.49   371.9    7.2      29.635
2014    9        6     3   2    4.50   371.8    7.2      29.640
2014    9        6     3   8    4.50   371.7    7.2      29.646
2014    9        6     3  14    4.50   371.6    7.2      29.651
2014    9        6     3  19    4.50   371.6    7.2      29.656
2014    9        6     3  25    4.51   371.5    7.2      29.661
2014    9        6     3  30    4.51   371.4    7.2      29.666
2014    9        6     3  36    4.51   371.3    7.2      29.671
2014    9        6     3  42    4.52   371.3    7.2      29.676
2014    9        6     3  47    4.52   371.2    7.2      29.680
2014    9        6     3  53    4.52   371.1    7.2      29.685
2014    9        6     3  58    4.53   371.0    7.2      29.690
2014    9        6     4   4    4.53   371.0    7.3      29.694
2014    9        6     4  10    4.53   370.9    7.3      29.699
2014    9        6     4  15    4.53   370.8    7.3      29.703
2014    9        6     4  21    4.54   370.8    7.3      29.707
2014    9        6     4  27    4.54   370.7    7.3      29.711
2014    9        6     4  32    4.54   370.6    7.3      29.715
2014    9        6     4  38    4.55   370.5    7.3      29.720
2014    9        6     4  43    4.55   370.5    7.3      29.723
2014    9        6     4  49    4.55   370.4    7.3      29.727
2014    9        6     4  55    4.56   370.3    7.3      29.731
2014    9        6     5   0    4.56   370.2    7.3      29.735
2014    9        6     5   6    4.56   370.2    7.3      29.739
2014    9        6     5  12    4.56   370.1    7.3      29.743
2014    9        6     5  17    4.57   370.0    7.3      29.747
2014    9        6     5  23    4.57   370.0    7.3      29.751
2014    9        6     5  28    4.57   369.9    7.3      29.755
2014    9        6     5  34    4.58   369.8    7.3      29.759
2014    9        6     5  40    4.58   369.7    7.4      29.763
2014    9        6     5  45    4.58   369.7    7.4      29.767
2014    9        6     5  51    4.59   369.6    7.4      29.772
2014    9        6     5  56    4.59   369.5    7.4      29.776
2014    9        6     6   2    4.59   369.5    7.4      29.781
2014    9        6     6   8    4.60   369.4    7.4      29.786
2014    9        6     6  13    4.60   369.3    7.4      29.791
2014    9        6     6  19    4.60   369.3    7.4      29.797
2014    9        6     6  25    4.61   369.2    7.4      29.802
2014    9        6     6  30    4.61   369.1    7.4      29.808
2014    9        6     6  36    4.61   369.1    7.4      29.814
2014    9        6     6  41    4.62   369.0    7.4      29.820
2014    9        6     6  47    4.62   368.9    7.4      29.826
2014    9        6     6  53    4.62   368.9    7.4      29.832
2014    9        6     6  58    4.63   368.8    7.5      29.839
2014    9        6     7   4    4.63   368.8    7.5      29.846
2014    9        6     7  10    4.63   368.7    7.5      29.853
2014    9        6     7  15    4.64   368.6    7.5      29.861
2014    9        6     7  21    4.64   368.6    7.5      29.869
2014    9        6     7  26    4.64   368.5    7.5      29.877
2014    9        6     7  32    4.65   368.5    7.5      29.885
2014    9        6     7  38    4.65   368.4    7.5      29.894
2014    9        6     7  43    4.65   368.3    7.5      29.904
2014    9        6     7  49    4.66   368.3    7.5      29.914
2014    9        6     7  54    4.66   368.2    7.5      29.925
2014    9        6     8   0    4.66   368.2    7.5      29.936
2014    9        6     8   6    4.67   368.1    7.5      29.948
2014    9        6     8  11    4.67   368.1    7.5      29.959
2014    9        6     8  17    4.67   368.0    7.6      29.971
2014    9        6     8  23    4.68   368.0    7.6      29.983
2014    9        6     8  28    4.68   367.9    7.6      29.995
2014    9        6     8  34    4.69   367.8    7.6      30.007
2014    9        6     8  39    4.69   367.8    7.6      30.018
2014    9        6     8  45    4.69   367.7    7.6      30.030
2014    9        6     8  51    4.70   367.7    7.6      30.041
2014    9        6     8  56    4.70   367.6    7.6      30.053
2014    9        6     9   2    4.70   367.6    7.6      30.064
2014    9        6     9   8    4.71   367.5    7.6      30.075
2014    9        6     9  13    4.71   367.5    7.6      30.086
2014    9        6     9  19    4.71   367.4    7.6      30.097
2014    9        6     9  24    4.72   367.4    7.6      30.108
2014    9        6     9  30    4.72   367.3    7.6      30.118
2014    9        6     9  36    4.72   367.3    7.7      30.129
2014    9        6     9  41    4.73   367.2    7.7      30.139
2014    9        6     9  47    4.73   367.1    7.7      30.149
2014    9        6     9  52    4.73   367.1    7.7      30.160
2014    9        6     9  58    4.74   367.0    7.7      30.170
2014    9        6    10   4    4.74   367.0    7.7      30.180
2014    9        6    10   9    4.74   366.9    7.7      30.190
2014    9        6    10  15    4.75   366.9    7.7      30.200
2014    9        6    10  21    4.75   366.8    7.7      30.209
2014    9        6    10  26    4.75   366.8    7.7      30.219
2014    9        6    10  32    4.76   366.7    7.7      30.229
2014    9        6    10  37    4.76   366.7    7.7      30.238
2014    9        6    10  43    4.76   366.6    7.7      30.248
2014    9        6    10  49    4.77   366.6    7.7      30.257
2014    9        6    10  54    4.77   366.5    7.7      30.266
2014    9        6    11   0    4.77   366.5    7.7      30.275
2014    9        6    11   6    4.78   366.4    7.7      30.284
2014    9        6    11  11    4.78   366.4    7.8      30.293
2014    9        6    11  17    4.78   366.3    7.8      30.302
2014    9        6    11  22    4.79   366.3    7.8      30.311
2014    9        6    11  28    4.79   366.2    7.8      30.320
2014    9        6    11  34    4.79   366.2    7.8      30.328
2014    9        6    11  39    4.80   366.1    7.8      30.337
2014    9        6    11  45    4.80   366.1    7.8      30.345
2014    9        6    11  50    4.80   366.0    7.8      30.354
2014    9        6    11  56    4.81   366.0    7.8      30.362
2014    9        6    12   2    4.81   365.9    7.8      30.371
2014    9        6    12   7    4.81   365.9    7.8      30.379
2014    9        6    12  13    4.82   365.8    7.8      30.387
2014    9        6    12  19    4.82   365.8    7.8      30.396
2014    9        6    12  24    4.82   365.7    7.8      30.405
2014    9        6    12  30    4.83   365.7    7.8      30.413
2014    9        6    12  35    4.83   365.6    7.8      30.422
2014    9        6    12  41    4.83   365.6    7.8      30.431
2014    9        6    12  47    4.84   365.5    7.9      30.440
2014    9        6    12  52    4.84   365.5    7.9      30.449
2014    9        6    12  58    4.84   365.4    7.9      30.458
2014    9        6    13   4    4.85   365.4    7.9      30.468
2014    9        6    13   9    4.85   365.3    7.9      30.477
2014    9        6    13  15    4.86   365.3    7.9      30.487
2014    9        6    13  20    4.86   365.2    7.9      30.497
2014    9        6    13  26    4.86   365.2    7.9      30.508
2014    9        6    13  32    4.87   365.1    7.9      30.518
2014    9        6    13  37    4.87   365.1    7.9      30.529
2014    9        6    13  43    4.87   365.1    7.9      30.540
2014    9        6    13  48    4.88   365.0    7.9      30.551
2014    9        6    13  54    4.88   365.0    7.9      30.563
2014    9        6    14   0    4.89   364.9    7.9      30.575
2014    9        6    14   5    4.89   364.9    7.9      30.588
2014    9        6    14  11    4.89   364.8    8.0      30.601
2014    9        6    14  17    4.90   364.8    8.0      30.614
2014    9        6    14  22    4.90   364.8    8.0      30.628
2014    9        6    14  28    4.91   364.7    8.0      30.643
2014    9        6    14  33    4.91   364.7    8.0      30.658
2014    9        6    14  39    4.91   364.7    8.0      30.674
2014    9        6    14  45    4.92   364.6    8.0      30.690
2014    9        6    14  50    4.92   364.6    8.0      30.706
2014    9        6    14  56    4.93   364.6    8.0      30.724
2014    9        6    15   2    4.93   364.6    8.0      30.741
2014    9        6    15   7    4.93   364.5    8.0      30.759
2014    9        6    15  13    4.94   364.5    8.0      30.778
2014    9        6    15  18    4.94   364.5    8.0      30.796
2014    9        6    15  24    4.95   364.4    8.1      30.815
2014    9        6    15  30    4.95   364.4    8.1      30.834
2014    9        6    15  35    4.95   364.4    8.1      30.853
2014    9        6    15  41    4.96   364.4    8.1      30.872
2014    9        6    15  46    4.96   364.3    8.1      30.892
2014    9        6    15  52    4.96   364.3    8.1      30.910
2014    9        6    15  58    4.97   364.3    8.1      30.929
2014    9        6    16   3    4.97   364.3    8.1      30.948
2014    9        6    16   9    4.98   364.2    8.1      30.966
2014    9        6    16  15    4.98   364.2    8.1      30.985
2014    9        6    16  20    4.98   364.2    8.1      31.003
2014    9        6    16  26    4.99   364.2    8.1      31.021
2014    9        6    16  31    4.99   364.1    8.1      31.039
2014    9        6    16  37    4.99   364.1    8.1      31.057
2014    9        6    16  43    5.00   364.1    8.1      31.074
2014    9        6    16  48    5.00   364.1    8.2      31.092
2014    9        6    16  54    5.00   364.0    8.2      31.109
2014    9        6    17   0    5.01   364.0    8.2      31.127
2014    9        6    17   5    5.01   364.0    8.2      31.144
2014    9        6    17  11    5.02   364.0    8.2      31.161
2014    9        6    17  16    5.02   363.9    8.2      31.178
2014    9        6    17  22    5.02   363.9    8.2      31.194
2014    9        6    17  28    5.03   363.9    8.2      31.211
2014    9        6    17  33    5.03   363.9    8.2      31.227
2014    9        6    17  39    5.03   363.8    8.2      31.244
2014    9        6    17  44    5.04   363.8    8.2      31.260
2014    9        6    17  50    5.04   363.8    8.2      31.276
2014    9        6    17  56    5.04   363.8    8.2      31.292
2014    9        6    18   1    5.05   363.7    8.2      31.308
2014    9        6    18   7    5.05   363.7    8.2      31.324
2014    9        6    18  13    5.06   363.7    8.2      31.340
2014    9        6    18  18    5.06   363.7    8.2      31.355
2014    9        6    18  24    5.06   363.6    8.3      31.371
2014    9        6    18  29    5.07   363.6    8.3      31.386
2014    9        6    18  35    5.07   363.6    8.3      31.402
2014    9        6    18  41    5.07   363.6    8.3      31.417
2014    9        6    18  46    5.08   363.5    8.3      31.432
2014    9        6    18  52    5.08   363.5    8.3      31.448
2014    9        6    18  58    5.08   363.5    8.3      31.463
2014    9        6    19   3    5.09   363.5    8.3      31.478
2014    9        6    19   9    5.09   363.4    8.3      31.494
2014    9        6    19  14    5.10   363.4    8.3      31.509
2014    9        6    19  20    5.10   363.4    8.3      31.524
2014    9        6    19  26    5.10   363.4    8.3      31.540
2014    9        6    19  31    5.11   363.4    8.3      31.555
2014    9        6    19  37    5.11   363.3    8.3      31.571
2014    9        6    19  42    5.11   363.3    8.3      31.587
2014    9        6    19  48    5.12   363.3    8.3      31.602
2014    9        6    19  54    5.12   363.3    8.3      31.618
2014    9        6    19  59    5.13   363.3    8.4      31.635
2014    9        6    20   5    5.13   363.2    8.4      31.651
2014    9        6    20  11    5.13   363.2    8.4      31.668
2014    9        6    20  16    5.14   363.2    8.4      31.685
2014    9        6    20  22    5.14   363.2    8.4      31.703
2014    9        6    20  27    5.15   363.2    8.4      31.721
2014    9        6    20  33    5.15   363.2    8.4      31.740
2014    9        6    20  39    5.15   363.1    8.4      31.760
2014    9        6    20  44    5.16   363.1    8.4      31.780
2014    9        6    20  50    5.16   363.1    8.4      31.800
2014    9        6    20  56    5.17   363.1    8.4      31.821
2014    9        6    21   1    5.17   363.1    8.4      31.842
2014    9        6    21   7    5.17   363.1    8.4      31.863
2014    9        6    21  12    5.18   363.1    8.4      31.885
2014    9        6    21  18    5.18   363.1    8.4      31.907
2014    9        6    21  24    5.19   363.1    8.4      31.929
2014    9        6    21  29    5.19   363.1    8.5      31.952
2014    9        6    21  35    5.19   363.1    8.5      31.974
2014    9        6    21  40    5.20   363.1    8.5      31.997
2014    9        6    21  46    5.20   363.0    8.5      32.021
2014    9        6    21  52    5.21   363.0    8.5      32.045
2014    9        6    21  57    5.21   363.0    8.5      32.069
2014    9        6    22   3    5.21   363.0    8.5      32.093
2014    9        6    22   9    5.22   363.0    8.5      32.118
2014    9        6    22  14    5.22   363.0    8.5      32.143
2014    9        6    22  20    5.23   363.0    8.5      32.168
2014    9        6    22  25    5.23   363.0    8.5      32.193
2014    9        6    22  31    5.23   363.0    8.5      32.218
2014    9        6    22  37    5.24   363.0    8.5      32.243
2014    9        6    22  42    5.24   363.0    8.5      32.269
2014    9        6    22  48    5.24   363.0    8.5      32.294
2014    9        6    22  54    5.25   363.0    8.5      32.318
2014    9        6    22  59    5.25   363.0    8.6      32.343
2014    9        6    23   5    5.26   363.0    8.6      32.368
2014    9        6    23  10    5.26   363.0    8.6      32.393
2014    9        6    23  16    5.26   363.0    8.6      32.417
2014    9        6    23  22    5.27   363.0    8.6      32.441
2014    9        6    23  27    5.27   363.0    8.6      32.466
2014    9        6    23  33    5.28   363.0    8.6      32.490
2014    9        6    23  38    5.28   363.0    8.6      32.514
2014    9        6    23  44    5.28   363.0    8.6      32.539
2014    9        6    23  50    5.29   363.0    8.6      32.563
2014    9        6    23  55    5.29   363.0    8.6      32.587
2014    9        7     0   1    5.29   363.0    8.6      32.611
2014    9        7     0   7    5.30   363.0    8.6      32.636
2014    9        7     0  12    5.30   363.0    8.6      32.660
2014    9        7     0  18    5.31   363.0    8.6      32.684
2014    9        7     0  23    5.31   363.0    8.6      32.708
2014    9        7     0  29    5.31   363.0    8.6      32.733
2014    9        7     0  35    5.32   363.0    8.6      32.757
2014    9        7     0  40    5.32   363.1    8.6      32.781
2014    9        7     0  46    5.32   363.1    8.7      32.806
2014    9        7     0  52    5.33   363.1    8.7      32.830
2014    9        7     0  57    5.33   363.1    8.7      32.854
2014    9        7     1   3    5.34   363.1    8.7      32.879
2014    9        7     1   8    5.34   363.1    8.7      32.903
2014    9        7     1  14    5.34   363.1    8.7      32.927
2014    9        7     1  20    5.35   363.1    8.7      32.952
2014    9        7     1  25    5.35   363.1    8.7      32.976
2014    9        7     1  31    5.36   363.1    8.7      33.000
2014    9        7     1  36    5.36   363.1    8.7      33.024
2014    9        7     1  42    5.36   363.1    8.7      33.049
2014    9        7     1  48    5.37   363.1    8.7      33.073
2014    9        7     1  53    5.37   363.1    8.7      33.097
2014    9        7     1  59    5.38   363.1    8.7      33.122
2014    9        7     2   5    5.38   363.1    8.7      33.146
2014    9        7     2  10    5.39   363.1    8.7      33.171
2014    9        7     2  16    5.39   363.1    8.7      33.195
2014    9        7     2  21    5.39   363.2    8.7      33.220
2014    9        7     2  27    5.40   363.2    8.7      33.245
2014    9        7     2  33    5.40   363.2    8.7      33.270
2014    9        7     2  38    5.41   363.2    8.8      33.294
2014    9        7     2  44    5.41   363.2    8.8      33.319
2014    9        7     2  50    5.42   363.2    8.8      33.344
2014    9        7     2  55    5.42   363.2    8.8      33.369
2014    9        7     3   1    5.43   363.2    8.8      33.393
2014    9        7     3   6    5.43   363.2    8.8      33.418
2014    9        7     3  12    5.44   363.3    8.8      33.444
2014    9        7     3  18    5.44   363.3    8.8      33.470
2014    9        7     3  23    5.44   363.3    8.8      33.496
2014    9        7     3  29    5.45   363.3    8.8      33.523
2014    9        7     3  34    5.45   363.3    8.8      33.551
2014    9        7     3  40    5.46   363.4    8.8      33.580
2014    9        7     3  46    5.46   363.4    8.8      33.609
2014    9        7     3  51    5.47   363.4    8.8      33.639
2014    9        7     3  57    5.47   363.4    8.8      33.669
2014    9        7     4   3    5.48   363.5    8.9      33.700
2014    9        7     4   8    5.48   363.5    8.9      33.731
2014    9        7     4  14    5.48   363.5    8.9      33.762
2014    9        7     4  19    5.49   363.5    8.9      33.793
2014    9        7     4  25    5.49   363.6    8.9      33.824
2014    9        7     4  31    5.50   363.6    8.9      33.855
2014    9        7     4  36    5.50   363.6    8.9      33.886
2014    9        7     4  42    5.50   363.6    8.9      33.916
2014    9        7     4  48    5.51   363.7    8.9      33.947
2014    9        7     4  53    5.51   363.7    8.9      33.978
2014    9        7     4  59    5.52   363.7    8.9      34.008
2014    9        7     5   4    5.52   363.7    8.9      34.038
2014    9        7     5  10    5.52   363.8    8.9      34.069
2014    9        7     5  16    5.53   363.8    8.9      34.098
2014    9        7     5  21    5.53   363.8    8.9      34.128
2014    9        7     5  27    5.54   363.9    8.9      34.158
2014    9        7     5  32    5.54   363.9    8.9      34.188
2014    9        7     5  38    5.54   363.9    8.9      34.217
2014    9        7     5  44    5.55   363.9    8.9      34.246
2014    9        7     5  49    5.55   364.0    8.9      34.275
2014    9        7     5  55    5.56   364.0    8.9      34.304
2014    9        7     6   1    5.56   364.0    9.0      34.333
2014    9        7     6   6    5.56   364.0    9.0      34.362
2014    9        7     6  12    5.57   364.1    9.0      34.390
2014    9        7     6  17    5.57   364.1    9.0      34.419
2014    9        7     6  23    5.58   364.1    9.0      34.447
2014    9        7     6  29    5.58   364.1    9.0      34.475
2014    9        7     6  34    5.58   364.2    9.0      34.504
2014    9        7     6  40    5.59   364.2    9.0      34.532
2014    9        7     6  46    5.59   364.2    9.0      34.560
2014    9        7     6  51    5.60   364.2    9.0      34.588
2014    9        7     6  57    5.60   364.3    9.0      34.616
2014    9        7     7   2    5.60   364.3    9.0      34.644
2014    9        7     7   8    5.61   364.3    9.0      34.673
2014    9        7     7  14    5.61   364.4    9.0      34.701
2014    9        7     7  19    5.61   364.4    9.0      34.730
2014    9        7     7  25    5.62   364.4    9.0      34.759
2014    9        7     7  30    5.62   364.5    9.0      34.789
2014    9        7     7  36    5.63   364.5    9.0      34.818
2014    9        7     7  42    5.63   364.5    9.0      34.847
2014    9        7     7  47    5.63   364.5    9.0      34.877
2014    9        7     7  53    5.64   364.6    9.0      34.906
2014    9        7     7  59    5.64   364.6    9.0      34.935
2014    9        7     8   4    5.64   364.6    9.0      34.965
2014    9        7     8  10    5.65   364.7    9.0      34.994
2014    9        7     8  15    5.65   364.7    9.0      35.023
2014    9        7     8  21    5.66   364.7    9.0      35.052
2014    9        7     8  27    5.66   364.8    9.0      35.080
2014    9        7     8  32    5.66   364.8    9.1      35.109
2014    9        7     8  38    5.67   364.8    9.1      35.138
2014    9        7     8  44    5.67   364.9    9.1      35.167
2014    9        7     8  49    5.67   364.9    9.1      35.195
2014    9        7     8  55    5.68   364.9    9.1      35.224
2014    9        7     9   0    5.68   365.0    9.1      35.252
2014    9        7     9   6    5.69   365.0    9.1      35.281
2014    9        7     9  12    5.69   365.0    9.1      35.309
2014    9        7     9  17    5.69   365.1    9.1      35.338
2014    9        7     9  23    5.70   365.1    9.1      35.367
2014    9        7     9  28    5.70   365.1    9.1      35.395
2014    9        7     9  34    5.70   365.2    9.1      35.424
2014    9        7     9  40    5.71   365.2    9.1      35.452
2014    9        7     9  45    5.71   365.2    9.1      35.481
2014    9        7     9  51    5.72   365.3    9.1      35.510
2014    9        7     9  57    5.72   365.3    9.1      35.538
2014    9        7    10   2    5.72   365.3    9.1      35.567
2014    9        7    10   8    5.73   365.4    9.1      35.596
2014    9        7    10  13    5.73   365.4    9.1      35.625
2014    9        7    10  19    5.73   365.5    9.1      35.654
2014    9        7    10  25    5.74   365.5    9.1      35.683
2014    9        7    10  30    5.74   365.5    9.1      35.712
2014    9        7    10  36    5.75   365.6    9.1      35.742
2014    9        7    10  42    5.75   365.6    9.1      35.772
2014    9        7    10  47    5.75   365.7    9.1      35.802
2014    9        7    10  53    5.76   365.7    9.2      35.834
2014    9        7    10  58    5.76   365.7    9.2      35.866
2014    9        7    11   4    5.76   365.8    9.2      35.899
2014    9        7    11  10    5.77   365.8    9.2      35.933
2014    9        7    11  15    5.77   365.9    9.2      35.967
2014    9        7    11  21    5.77   365.9    9.2      36.002
2014    9        7    11  26    5.78   366.0    9.2      36.038
2014    9        7    11  32    5.78   366.0    9.2      36.074
2014    9        7    11  38    5.78   366.1    9.2      36.109
2014    9        7    11  43    5.79   366.1    9.2      36.145
2014    9        7    11  49    5.79   366.1    9.2      36.180
2014    9        7    11  55    5.79   366.2    9.2      36.215
2014    9        7    12   0    5.80   366.2    9.2      36.250
2014    9        7    12   6    5.80   366.3    9.2      36.284
2014    9        7    12  11    5.80   366.3    9.2      36.319
2014    9        7    12  17    5.81   366.4    9.2      36.353
2014    9        7    12  23    5.81   366.4    9.2      36.387
2014    9        7    12  28    5.81   366.5    9.2      36.420
2014    9        7    12  34    5.81   366.5    9.2      36.454
2014    9        7    12  40    5.82   366.5    9.2      36.487
2014    9        7    12  45    5.82   366.6    9.2      36.520
2014    9        7    12  51    5.82   366.6    9.2      36.552
2014    9        7    12  56    5.83   366.7    9.2      36.584
2014    9        7    13   2    5.83   366.7    9.2      36.616
2014    9        7    13   8    5.83   366.8    9.2      36.648
2014    9        7    13  13    5.83   366.8    9.2      36.679
2014    9        7    13  19    5.84   366.9    9.2      36.711
2014    9        7    13  24    5.84   366.9    9.2      36.742
2014    9        7    13  30    5.84   366.9    9.2      36.773
2014    9        7    13  36    5.85   367.0    9.2      36.804
2014    9        7    13  41    5.85   367.0    9.2      36.835
2014    9        7    13  47    5.85   367.1    9.2      36.865
2014    9        7    13  53    5.85   367.1    9.2      36.896
2014    9        7    13  58    5.86   367.2    9.2      36.927
2014    9        7    14   4    5.86   367.2    9.3      36.957
2014    9        7    14   9    5.86   367.3    9.3      36.987
2014    9        7    14  15    5.87   367.3    9.3      37.018
2014    9        7    14  21    5.87   367.4    9.3      37.048
2014    9        7    14  26    5.87   367.4    9.3      37.078
2014    9        7    14  32    5.87   367.4    9.3      37.108
2014    9        7    14  38    5.88   367.5    9.3      37.139
2014    9        7    14  43    5.88   367.5    9.3      37.169
2014    9        7    14  49    5.88   367.6    9.3      37.200
2014    9        7    14  54    5.88   367.6    9.3      37.231
2014    9        7    15   0    5.89   367.7    9.3      37.262
2014    9        7    15   6    5.89   367.8    9.3      37.293
2014    9        7    15  11    5.89   367.8    9.3      37.325
2014    9        7    15  17    5.90   367.9    9.3      37.356
2014    9        7    15  22    5.90   367.9    9.3      37.387
2014    9        7    15  28    5.90   368.0    9.3      37.418
2014    9        7    15  34    5.90   368.0    9.3      37.449
2014    9        7    15  39    5.91   368.1    9.3      37.480
2014    9        7    15  45    5.91   368.1    9.3      37.511
2014    9        7    15  51    5.91   368.2    9.3      37.542
2014    9        7    15  56    5.92   368.2    9.3      37.573
2014    9        7    16   2    5.92   368.3    9.3      37.604
2014    9        7    16   7    5.92   368.4    9.3      37.635
2014    9        7    16  13    5.92   368.4    9.3      37.666
2014    9        7    16  19    5.93   368.5    9.3      37.696
2014    9        7    16  24    5.93   368.5    9.3      37.727
2014    9        7    16  30    5.93   368.6    9.3      37.758
2014    9        7    16  36    5.94   368.6    9.3      37.788
2014    9        7    16  41    5.94   368.7    9.3      37.819
2014    9        7    16  47    5.94   368.8    9.3      37.849
2014    9        7    16  52    5.94   368.8    9.3      37.880
2014    9        7    16  58    5.95   368.9    9.3      37.911
2014    9        7    17   4    5.95   368.9    9.3      37.942
2014    9        7    17   9    5.95   369.0    9.3      37.972
2014    9        7    17  15    5.96   369.1    9.3      38.003
2014    9        7    17  20    5.96   369.1    9.3      38.034
2014    9        7    17  26    5.96   369.2    9.3      38.065
2014    9        7    17  32    5.96   369.2    9.3      38.096
2014    9        7    17  37    5.97   369.3    9.3      38.127
2014    9        7    17  43    5.97   369.4    9.3      38.158
2014    9        7    17  49    5.97   369.4    9.3      38.190
2014    9        7    17  54    5.98   369.5    9.3      38.221
2014    9        7    18   0    5.98   369.6    9.3      38.252
2014    9        7    18   5    5.98   369.6    9.3      38.284
2014    9        7    18  11    5.98   369.7    9.3      38.315
2014    9        7    18  17    5.99   369.8    9.3      38.347
2014    9        7    18  22    5.99   369.8    9.3      38.378
2014    9        7    18  28    5.99   369.9    9.3      38.410
2014    9        7    18  34    6.00   370.0    9.3      38.442
2014    9        7    18  39    6.00   370.0    9.3      38.474
2014    9        7    18  45    6.00   370.1    9.3      38.506
2014    9        7    18  50    6.01   370.2    9.3      38.538
2014    9        7    18  56    6.01   370.3    9.3      38.570
2014    9        7    19   2    6.01   370.3    9.3      38.602
2014    9        7    19   7    6.02   370.4    9.3      38.634
2014    9        7    19  13    6.02   370.5    9.3      38.666
2014    9        7    19  18    6.02   370.5    9.3      38.698
2014    9        7    19  24    6.02   370.6    9.4      38.730
2014    9        7    19  30    6.03   370.7    9.4      38.763
2014    9        7    19  35    6.03   370.7    9.4      38.795
2014    9        7    19  41    6.03   370.8    9.4      38.828
2014    9        7    19  47    6.04   370.9    9.4      38.861
2014    9        7    19  52    6.04   371.0    9.4      38.894
2014    9        7    19  58    6.04   371.0    9.4      38.927
2014    9        7    20   3    6.05   371.1    9.4      38.962
2014    9        7    20   9    6.05   371.2    9.4      38.997
2014    9        7    20  15    6.05   371.3    9.4      39.033
2014    9        7    20  20    6.06   371.4    9.4      39.069
2014    9        7    20  26    6.06   371.4    9.4      39.106
2014    9        7    20  32    6.06   371.5    9.4      39.144
2014    9        7    20  37    6.06   371.6    9.4      39.182
2014    9        7    20  43    6.07   371.7    9.4      39.220
2014    9        7    20  48    6.07   371.8    9.4      39.258
2014    9        7    20  54    6.07   371.9    9.4      39.297
2014    9        7    21   0    6.07   371.9    9.4      39.336
2014    9        7    21   5    6.08   372.0    9.4      39.374
2014    9        7    21  11    6.08   372.1    9.4      39.413
2014    9        7    21  16    6.08   372.2    9.4      39.451
2014    9        7    21  22    6.09   372.3    9.4      39.491
2014    9        7    21  28    6.09   372.4    9.4      39.531
2014    9        7    21  33    6.09   372.5    9.5      39.572
2014    9        7    21  39    6.09   372.5    9.5      39.614
2014    9        7    21  45    6.10   372.6    9.5      39.655
2014    9        7    21  50    6.10   372.7    9.5      39.698
2014    9        7    21  56    6.10   372.8    9.5      39.741
2014    9        7    22   1    6.11   372.9    9.5      39.785
2014    9        7    22   7    6.11   373.0    9.5      39.828
2014    9        7    22  13    6.11   373.1    9.5      39.871
2014    9        7    22  18    6.11   373.2    9.5      39.914
2014    9        7    22  24    6.12   373.3    9.5      39.956
2014    9        7    22  30    6.12   373.4    9.5      39.997
2014    9        7    22  35    6.12   373.5    9.5      40.038
2014    9        7    22  41    6.12   373.6    9.5      40.078
2014    9        7    22  46    6.13   373.7    9.5      40.118
2014    9        7    22  52    6.13   373.8    9.5      40.157
2014    9        7    22  58    6.13   373.9    9.5      40.196
2014    9        7    23   3    6.13   374.0    9.5      40.234
2014    9        7    23   9    6.14   374.1    9.5      40.271
2014    9        7    23  14    6.14   374.2    9.5      40.308
2014    9        7    23  20    6.14   374.3    9.5      40.344
2014    9        7    23  26    6.14   374.4    9.5      40.380
2014    9        7    23  31    6.15   374.4    9.5      40.415
2014    9        7    23  37    6.15   374.5    9.5      40.450
2014    9        7    23  43    6.15   374.6    9.5      40.484
2014    9        7    23  48    6.15   374.7    9.5      40.518
2014    9        7    23  54    6.15   374.8    9.5      40.551
2014    9        7    23  59    6.16   374.9    9.5      40.584
2014    9        8     0   5    6.16   375.0    9.5      40.617
2014    9        8     0  11    6.16   375.1    9.5      40.649
2014    9        8     0  16    6.16   375.2    9.5      40.681
2014    9        8     0  22    6.17   375.3    9.5      40.712
2014    9        8     0  28    6.17   375.4    9.5      40.744
2014    9        8     0  33    6.17   375.5    9.5      40.775
2014    9        8     0  39    6.17   375.6    9.5      40.805
2014    9        8     0  44    6.17   375.7    9.5      40.836
2014    9        8     0  50    6.18   375.8    9.5      40.866
2014    9        8     0  56    6.18   375.9    9.5      40.896
2014    9        8     1   1    6.18   376.0    9.5      40.926
2014    9        8     1   7    6.18   376.1    9.5      40.955
2014    9        8     1  12    6.19   376.2    9.5      40.985
2014    9        8     1  18    6.19   376.3    9.5      41.014
2014    9        8     1  24    6.19   376.4    9.5      41.043
2014    9        8     1  29    6.19   376.5    9.5      41.072
2014    9        8     1  35    6.19   376.6    9.5      41.101
2014    9        8     1  41    6.20   376.6    9.5      41.130
2014    9        8     1  46    6.20   376.7    9.5      41.159
2014    9        8     1  52    6.20   376.8    9.5      41.187
2014    9        8     1  57    6.20   376.9    9.5      41.216
2014    9        8     2   3    6.20   377.0    9.5      41.245
2014    9        8     2   9    6.21   377.1    9.5      41.273
2014    9        8     2  14    6.21   377.2    9.5      41.302
2014    9        8     2  20    6.21   377.3    9.5      41.331
2014    9        8     2  26    6.21   377.4    9.5      41.360
2014    9        8     2  31    6.22   377.5    9.5      41.389
2014    9        8     2  37    6.22   377.6    9.5      41.419
2014    9        8     2  42    6.22   377.7    9.5      41.448
2014    9        8     2  48    6.22   377.8    9.5      41.477
2014    9        8     2  54    6.22   377.9    9.5      41.506
2014    9        8     2  59    6.23   378.0    9.5      41.536
2014    9        8     3   5    6.23   378.1    9.5      41.565
2014    9        8     3  10    6.23   378.2    9.5      41.595
2014    9        8     3  16    6.23   378.3    9.5      41.624
2014    9        8     3  22    6.24   378.3    9.5      41.654
2014    9        8     3  27    6.24   378.4    9.5      41.685
2014    9        8     3  33    6.24   378.5    9.5      41.715
2014    9        8     3  39    6.24   378.6    9.5      41.746
2014    9        8     3  44    6.24   378.7    9.5      41.778
2014    9        8     3  50    6.25   378.8    9.5      41.810
2014    9        8     3  55    6.25   378.9    9.5      41.842
2014    9        8     4   1    6.25   379.0    9.5      41.874
2014    9        8     4   7    6.25   379.1    9.5      41.908
2014    9        8     4  12    6.26   379.2    9.5      41.944
2014    9        8     4  18    6.26   379.3    9.5      41.981
2014    9        8     4  24    6.26   379.4    9.5      42.020
2014    9        8     4  29    6.26   379.5    9.5      42.060
2014    9        8     4  35    6.27   379.6    9.5      42.102
2014    9        8     4  40    6.27   379.7    9.5      42.145
2014    9        8     4  46    6.27   379.8    9.5      42.189
2014    9        8     4  52    6.27   379.9    9.5      42.235
2014    9        8     4  57    6.28   380.0    9.5      42.282
2014    9        8     5   3    6.28   380.1    9.5      42.329
2014    9        8     5   8    6.28   380.2    9.5      42.376
2014    9        8     5  14    6.29   380.3    9.5      42.424
2014    9        8     5  20    6.29   380.4    9.5      42.471
2014    9        8     5  25    6.29   380.6    9.6      42.518
2014    9        8     5  31    6.29   380.7    9.6      42.565
2014    9        8     5  37    6.30   380.8    9.6      42.612
2014    9        8     5  42    6.30   380.9    9.6      42.658
2014    9        8     5  48    6.30   381.0    9.6      42.702
2014    9        8     5  53    6.30   381.2    9.6      42.746
2014    9        8     5  59    6.30   381.3    9.6      42.788
2014    9        8     6   5    6.31   381.4    9.6      42.830
2014    9        8     6  10    6.31   381.5    9.6      42.870
2014    9        8     6  16    6.31   381.7    9.6      42.910
2014    9        8     6  22    6.31   381.8    9.6      42.949
2014    9        8     6  27    6.31   381.9    9.6      42.987
2014    9        8     6  33    6.32   382.0    9.6      43.024
2014    9        8     6  38    6.32   382.2    9.6      43.060
2014    9        8     6  44    6.32   382.3    9.6      43.095
2014    9        8     6  50    6.32   382.4    9.6      43.129
2014    9        8     6  55    6.32   382.5    9.6      43.163
2014    9        8     7   1    6.33   382.7    9.6      43.196
2014    9        8     7   7    6.33   382.8    9.5      43.228
2014    9        8     7  12    6.33   382.9    9.5      43.260
2014    9        8     7  18    6.33   383.0    9.5      43.291
2014    9        8     7  23    6.33   383.2    9.5      43.322
2014    9        8     7  29    6.33   383.3    9.5      43.352
2014    9        8     7  35    6.34   383.4    9.5      43.382
2014    9        8     7  40    6.34   383.6    9.5      43.412
2014    9        8     7  46    6.34   383.7    9.5      43.441
2014    9        8     7  51    6.34   383.8    9.5      43.469
2014    9        8     7  57    6.34   383.9    9.5      43.498
2014    9        8     8   3    6.35   384.1    9.5      43.526
2014    9        8     8   8    6.35   384.2    9.5      43.553
2014    9        8     8  14    6.35   384.3    9.5      43.581
2014    9        8     8  20    6.35   384.4    9.5      43.608
2014    9        8     8  25    6.35   384.6    9.5      43.636
2014    9        8     8  31    6.35   384.7    9.5      43.663
2014    9        8     8  36    6.36   384.8    9.5      43.690
2014    9        8     8  42    6.36   385.0    9.5      43.716
2014    9        8     8  48    6.36   385.1    9.5      43.743
2014    9        8     8  53    6.36   385.2    9.5      43.769
2014    9        8     8  59    6.36   385.3    9.5      43.796
2014    9        8     9   4    6.36   385.5    9.5      43.822
2014    9        8     9  10    6.37   385.6    9.5      43.848
2014    9        8     9  16    6.37   385.7    9.5      43.875
2014    9        8     9  21    6.37   385.9    9.5      43.901
2014    9        8     9  27    6.37   386.0    9.5      43.927
2014    9        8     9  33    6.37   386.1    9.5      43.953
2014    9        8     9  38    6.38   386.3    9.5      43.980
2014    9        8     9  44    6.38   386.4    9.5      44.007
2014    9        8     9  49    6.38   386.5    9.5      44.033
2014    9        8     9  55    6.38   386.7    9.5      44.060
2014    9        8    10   1    6.38   386.8    9.5      44.087
2014    9        8    10   6    6.38   386.9    9.5      44.114
2014    9        8    10  12    6.39   387.0    9.5      44.142
2014    9        8    10  18    6.39   387.2    9.5      44.169
2014    9        8    10  23    6.39   387.3    9.5      44.198
2014    9        8    10  29    6.39   387.4    9.5      44.226
2014    9        8    10  34    6.39   387.6    9.5      44.256
2014    9        8    10  40    6.40   387.7    9.5      44.286
2014    9        8    10  46    6.40   387.9    9.5      44.317
2014    9        8    10  51    6.40   388.0    9.4      44.349
2014    9        8    10  57    6.40   388.1    9.4      44.382
2014    9        8    11   3    6.40   388.3    9.4      44.417
2014    9        8    11   8    6.41   388.4    9.4      44.452
2014    9        8    11  14    6.41   388.5    9.4      44.489
2014    9        8    11  19    6.41   388.7    9.4      44.527
2014    9        8    11  25    6.41   388.8    9.4      44.566
2014    9        8    11  31    6.41   389.0    9.4      44.605
2014    9        8    11  36    6.41   389.1    9.4      44.644
2014    9        8    11  42    6.42   389.2    9.4      44.684
2014    9        8    11  47    6.42   389.4    9.4      44.725
2014    9        8    11  53    6.42   389.5    9.4      44.766
2014    9        8    11  59    6.42   389.7    9.5      44.807
2014    9        8    12   4    6.42   389.8    9.5      44.849
2014    9        8    12  10    6.43   389.9    9.5      44.892
2014    9        8    12  16    6.43   390.1    9.5      44.934
2014    9        8    12  21    6.43   390.2    9.5      44.977
2014    9        8    12  27    6.43   390.4    9.5      45.020
2014    9        8    12  32    6.43   390.5    9.5      45.064
2014    9        8    12  38    6.43   390.7    9.5      45.107
2014    9        8    12  44    6.44   390.8    9.5      45.150
2014    9        8    12  49    6.44   391.0    9.5      45.192
2014    9        8    12  55    6.44   391.1    9.5      45.235
2014    9        8    13   1    6.44   391.3    9.4      45.277
2014    9        8    13   6    6.44   391.4    9.4      45.319
2014    9        8    13  12    6.44   391.6    9.4      45.361
2014    9        8    13  17    6.45   391.8    9.4      45.403
2014    9        8    13  23    6.45   391.9    9.4      45.444
2014    9        8    13  29    6.45   392.1    9.4      45.485
2014    9        8    13  34    6.45   392.2    9.4      45.525
2014    9        8    13  40    6.45   392.4    9.4      45.564
2014    9        8    13  45    6.45   392.6    9.4      45.602
2014    9        8    13  51    6.45   392.7    9.4      45.640
2014    9        8    13  57    6.46   392.9    9.4      45.677
2014    9        8    14   2    6.46   393.0    9.4      45.713
2014    9        8    14   8    6.46   393.2    9.4      45.749
2014    9        8    14  14    6.46   393.4    9.4      45.784
2014    9        8    14  19    6.46   393.5    9.4      45.818
2014    9        8    14  25    6.46   393.7    9.4      45.852
2014    9        8    14  30    6.46   393.9    9.4      45.885
2014    9        8    14  36    6.46   394.1    9.4      45.918
2014    9        8    14  42    6.46   394.2    9.4      45.950
2014    9        8    14  47    6.47   394.4    9.4      45.981
2014    9        8    14  53    6.47   394.6    9.4      46.012
2014    9        8    14  59    6.47   394.7    9.4      46.042
2014    9        8    15   4    6.47   394.9    9.4      46.072
2014    9        8    15  10    6.47   395.1    9.4      46.102
2014    9        8    15  15    6.47   395.3    9.4      46.130
2014    9        8    15  21    6.47   395.4    9.4      46.159
2014    9        8    15  27    6.47   395.6    9.4      46.187
2014    9        8    15  32    6.47   395.8    9.3      46.214
2014    9        8    15  38    6.47   396.0    9.3      46.241
2014    9        8    15  43    6.47   396.1    9.3      46.268
2014    9        8    15  49    6.47   396.3    9.3      46.294
2014    9        8    15  55    6.47   396.5    9.3      46.320
2014    9        8    16   0    6.48   396.7    9.3      46.346
2014    9        8    16   6    6.48   396.9    9.3      46.371
2014    9        8    16  12    6.48   397.0    9.3      46.396
2014    9        8    16  17    6.48   397.2    9.3      46.421
2014    9        8    16  23    6.48   397.4    9.3      46.446
2014    9        8    16  28    6.48   397.6    9.3      46.470
2014    9        8    16  34    6.48   397.8    9.3      46.494
2014    9        8    16  40    6.48   397.9    9.3      46.519
2014    9        8    16  45    6.48   398.1    9.3      46.543
2014    9        8    16  51    6.48   398.3    9.3      46.567
2014    9        8    16  57    6.48   398.5    9.3      46.591
2014    9        8    17   2    6.48   398.7    9.2      46.615
2014    9        8    17   8    6.48   398.8    9.2      46.639
2014    9        8    17  13    6.48   399.0    9.2      46.663
2014    9        8    17  19    6.48   399.2    9.2      46.687
2014    9        8    17  25    6.48   399.4    9.2      46.711
2014    9        8    17  30    6.48   399.6    9.2      46.736
2014    9        8    17  36    6.48   399.8    9.2      46.761
2014    9        8    17  41    6.48   400.0    9.2      46.787
2014    9        8    17  47    6.48   400.2    9.2      46.813
2014    9        8    17  53    6.48   400.3    9.2      46.841
2014    9        8    17  58    6.48   400.5    9.2      46.869
2014    9        8    18   4    6.48   400.7    9.2      46.898
2014    9        8    18  10    6.48   400.9    9.2      46.927
2014    9        8    18  15    6.48   401.1    9.2      46.956
2014    9        8    18  21    6.48   401.3    9.2      46.985
2014    9        8    18  26    6.48   401.5    9.2      47.015
2014    9        8    18  32    6.48   401.7    9.2      47.044
2014    9        8    18  38    6.48   401.9    9.1      47.073
2014    9        8    18  43    6.48   402.1    9.1      47.102
2014    9        8    18  49    6.48   402.2    9.1      47.130
2014    9        8    18  55    6.48   402.4    9.1      47.159
2014    9        8    19   0    6.48   402.6    9.1      47.187
2014    9        8    19   6    6.48   402.8    9.1      47.216
2014    9        8    19  11    6.48   403.0    9.1      47.244
2014    9        8    19  17    6.48   403.2    9.1      47.272
2014    9        8    19  23    6.48   403.4    9.1      47.300
2014    9        8    19  28    6.48   403.5    9.1      47.328
2014    9        8    19  34    6.48   403.7    9.1      47.356
2014    9        8    19  39    6.48   403.9    9.1      47.384
2014    9        8    19  45    6.47   404.1    9.1      47.412
2014    9        8    19  51    6.47   404.3    9.1      47.440
2014    9        8    19  56    6.47   404.4    9.1      47.468
2014    9        8    20   2    6.47   404.6    9.1      47.497
2014    9        8    20   8    6.47   404.8    9.1      47.526
2014    9        8    20  13    6.47   405.0    9.0      47.555
2014    9        8    20  19    6.47   405.2    9.0      47.585
2014    9        8    20  24    6.47   405.3    9.0      47.615
2014    9        8    20  30    6.47   405.5    9.0      47.646
2014    9        8    20  36    6.47   405.7    9.0      47.677
2014    9        8    20  41    6.47   405.9    9.0      47.709
2014    9        8    20  47    6.47   406.1    9.0      47.740
2014    9        8    20  53    6.47   406.3    9.0      47.772
2014    9        8    20  58    6.47   406.5    9.0      47.804
2014    9        8    21   4    6.47   406.7    9.0      47.836
2014    9        8    21   9    6.47   406.9    9.0      47.867
2014    9        8    21  15    6.47   407.1    9.0      47.898
2014    9        8    21  21    6.47   407.3    9.0      47.928
2014    9        8    21  26    6.47   407.4    9.0      47.958
2014    9        8    21  32    6.47   407.6    9.0      47.987
2014    9        8    21  37    6.47   407.8    9.0      48.016
2014    9        8    21  43    6.46   408.0    8.9      48.044
2014    9        8    21  49    6.46   408.2    8.9      48.071
2014    9        8    21  54    6.46   408.4    8.9      48.098
2014    9        8    22   0    6.46   408.6    8.9      48.124
2014    9        8    22   6    6.46   408.8    8.9      48.150
2014    9        8    22  11    6.46   409.0    8.9      48.175
2014    9        8    22  17    6.46   409.2    8.9      48.200
2014    9        8    22  22    6.46   409.4    8.9      48.224
2014    9        8    22  28    6.46   409.6    8.9      48.247
2014    9        8    22  34    6.45   409.8    8.9      48.270
2014    9        8    22  39    6.45   410.0    8.9      48.293
2014    9        8    22  45    6.45   410.2    8.9      48.315
2014    9        8    22  51    6.45   410.4    8.8      48.336
2014    9        8    22  56    6.45   410.6    8.8      48.356
2014    9        8    23   2    6.45   410.8    8.8      48.377
2014    9        8    23   7    6.45   411.0    8.8      48.396
2014    9        8    23  13    6.44   411.2    8.8      48.415
2014    9        8    23  19    6.44   411.4    8.8      48.434
2014    9        8    23  24    6.44   411.6    8.8      48.452
2014    9        8    23  30    6.44   411.8    8.8      48.470
2014    9        8    23  35    6.44   412.0    8.8      48.487
2014    9        8    23  41    6.44   412.2    8.8      48.503
2014    9        8    23  47    6.43   412.4    8.7      48.519
2014    9        8    23  52    6.43   412.6    8.7      48.535
2014    9        8    23  58    6.43   412.8    8.7      48.550
2014    9        9     0   4    6.43   413.0    8.7      48.565
2014    9        9     0   9    6.43   413.2    8.7      48.579
2014    9        9     0  15    6.42   413.4    8.7      48.593
2014    9        9     0  20    6.42   413.6    8.7      48.606
2014    9        9     0  26    6.42   413.8    8.7      48.619
2014    9        9     0  32    6.42   414.0    8.7      48.632
2014    9        9     0  37    6.41   414.3    8.6      48.644
2014    9        9     0  43    6.41   414.5    8.6      48.655
2014    9        9     0  49    6.41   414.7    8.6      48.666
2014    9        9     0  54    6.41   414.9    8.6      48.676
2014    9        9     1   0    6.40   415.1    8.6      48.687
2014    9        9     1   5    6.40   415.2    8.6      48.696
2014    9        9     1  11    6.40   415.4    8.6      48.705
2014    9        9     1  17    6.39   415.6    8.6      48.714
2014    9        9     1  22    6.39   415.8    8.6      48.722
2014    9        9     1  28    6.39   416.0    8.5      48.730
2014    9        9     1  34    6.39   416.2    8.5      48.737
2014    9        9     1  39    6.38   416.4    8.5      48.743
2014    9        9     1  45    6.38   416.6    8.5      48.750
2014    9        9     1  50    6.38   416.8    8.5      48.756
2014    9        9     1  56    6.37   416.9    8.5      48.762
2014    9        9     2   2    6.37   417.1    8.5      48.768
2014    9        9     2   7    6.37   417.3    8.5      48.774
2014    9        9     2  13    6.37   417.5    8.5      48.780
2014    9        9     2  18    6.36   417.7    8.4      48.786
2014    9        9     2  24    6.36   417.8    8.4      48.792
2014    9        9     2  30    6.36   418.0    8.4      48.798
2014    9        9     2  35    6.35   418.2    8.4      48.805
2014    9        9     2  41    6.35   418.4    8.4      48.811
2014    9        9     2  47    6.35   418.6    8.4      48.817
2014    9        9     2  52    6.35   418.7    8.4      48.823
2014    9        9     2  58    6.34   418.9    8.4      48.829
2014    9        9     3   3    6.34   419.1    8.4      48.834
2014    9        9     3   9    6.34   419.3    8.4      48.840
2014    9        9     3  15    6.33   419.5    8.3      48.844
2014    9        9     3  20    6.33   419.7    8.3      48.849
2014    9        9     3  26    6.33   419.8    8.3      48.853
2014    9        9     3  31    6.33   420.0    8.3      48.857
2014    9        9     3  37    6.32   420.2    8.3      48.861
2014    9        9     3  43    6.32   420.4    8.3      48.865
2014    9        9     3  48    6.32   420.5    8.3      48.870
2014    9        9     3  54    6.31   420.7    8.3      48.874
2014    9        9     4   0    6.31   420.9    8.3      48.879
2014    9        9     4   5    6.31   421.1    8.3      48.883
2014    9        9     4  11    6.30   421.2    8.2      48.888
2014    9        9     4  16    6.30   421.4    8.2      48.893
2014    9        9     4  22    6.30   421.6    8.2      48.898
2014    9        9     4  28    6.29   421.8    8.2      48.903
2014    9        9     4  33    6.29   421.9    8.2      48.907
2014    9        9     4  39    6.29   422.1    8.2      48.911
2014    9        9     4  45    6.28   422.3    8.2      48.915
2014    9        9     4  50    6.28   422.4    8.2      48.918
2014    9        9     4  56    6.28   422.6    8.2      48.921
2014    9        9     5   1    6.27   422.8    8.1      48.923
2014    9        9     5   7    6.27   422.9    8.1      48.926
2014    9        9     5  13    6.27   423.1    8.1      48.928
2014    9        9     5  18    6.26   423.3    8.1      48.930
2014    9        9     5  24    6.26   423.4    8.1      48.931
2014    9        9     5  30    6.26   423.6    8.1      48.932
2014    9        9     5  35    6.25   423.8    8.1      48.933
2014    9        9     5  41    6.25   423.9    8.1      48.934
2014    9        9     5  46    6.25   424.1    8.1      48.934
2014    9        9     5  52    6.24   424.2    8.1      48.934
2014    9        9     5  58    6.24   424.4    8.0      48.934
2014    9        9     6   3    6.24   424.6    8.0      48.934
2014    9        9     6   9    6.23   424.7    8.0      48.933
2014    9        9     6  14    6.23   424.9    8.0      48.932
2014    9        9     6  20    6.23   425.0    8.0      48.931
2014    9        9     6  26    6.22   425.2    8.0      48.929
2014    9        9     6  31    6.22   425.3    8.0      48.928
2014    9        9     6  37    6.22   425.5    8.0      48.927
2014    9        9     6  43    6.21   425.6    8.0      48.925
2014    9        9     6  48    6.21   425.8    8.0      48.924
2014    9        9     6  54    6.21   425.9    7.9      48.922
2014    9        9     6  59    6.20   426.1    7.9      48.921
2014    9        9     7   5    6.20   426.2    7.9      48.920
2014    9        9     7  11    6.19   426.4    7.9      48.918
2014    9        9     7  16    6.19   426.5    7.9      48.917
2014    9        9     7  22    6.19   426.7    7.9      48.916
2014    9        9     7  28    6.18   426.8    7.9      48.915
2014    9        9     7  33    6.18   427.0    7.9      48.913
2014    9        9     7  39    6.18   427.1    7.9      48.912
2014    9        9     7  44    6.17   427.2    7.9      48.911
2014    9        9     7  50    6.17   427.4    7.9      48.910
2014    9        9     7  56    6.17   427.5    7.9      48.909
2014    9        9     8   1    6.16   427.7    7.8      48.908
2014    9        9     8   7    6.16   427.8    7.8      48.907
2014    9        9     8  12    6.15   428.0    7.8      48.906
2014    9        9     8  18    6.15   428.1    7.8      48.905
2014    9        9     8  24    6.15   428.2    7.8      48.904
2014    9        9     8  29    6.14   428.4    7.8      48.902
2014    9        9     8  35    6.14   428.5    7.8      48.900
2014    9        9     8  41    6.13   428.6    7.8      48.897
2014    9        9     8  46    6.13   428.8    7.8      48.894
2014    9        9     8  52    6.13   428.9    7.8      48.890
2014    9        9     8  57    6.12   429.0    7.8      48.886
2014    9        9     9   3    6.12   429.2    7.8      48.881
2014    9        9     9   9    6.12   429.3    7.7      48.876
2014    9        9     9  14    6.11   429.4    7.7      48.871
2014    9        9     9  20    6.11   429.5    7.7      48.867
2014    9        9     9  26    6.11   429.7    7.7      48.862
2014    9        9     9  31    6.10   429.8    7.7      48.857
2014    9        9     9  37    6.10   429.9    7.7      48.853
2014    9        9     9  42    6.09   430.0    7.7      48.848
2014    9        9     9  48    6.09   430.2    7.7      48.843
2014    9        9     9  54    6.09   430.3    7.7      48.838
2014    9        9     9  59    6.08   430.4    7.7      48.833
2014    9        9    10   5    6.08   430.6    7.7      48.827
2014    9        9    10  10    6.08   430.7    7.7      48.821
2014    9        9    10  16    6.07   430.8    7.6      48.815
2014    9        9    10  22    6.07   430.9    7.6      48.808
2014    9        9    10  27    6.07   431.1    7.6      48.801
2014    9        9    10  33    6.06   431.2    7.6      48.793
2014    9        9    10  39    6.06   431.3    7.6      48.785
2014    9        9    10  44    6.06   431.4    7.6      48.777
2014    9        9    10  50    6.05   431.6    7.6      48.769
2014    9        9    10  55    6.05   431.7    7.6      48.760
2014    9        9    11   1    6.04   431.8    7.6      48.751
2014    9        9    11   7    6.04   431.9    7.6      48.742
2014    9        9    11  12    6.04   432.0    7.6      48.732
2014    9        9    11  18    6.03   432.2    7.6      48.723
2014    9        9    11  24    6.03   432.3    7.5      48.713
2014    9        9    11  29    6.03   432.4    7.5      48.703
2014    9        9    11  35    6.02   432.5    7.5      48.693
2014    9        9    11  40    6.02   432.6    7.5      48.683
2014    9        9    11  46    6.01   432.7    7.5      48.673
2014    9        9    11  52    6.01   432.9    7.5      48.663
2014    9        9    11  57    6.01   433.0    7.5      48.652
2014    9        9    12   3    6.00   433.1    7.5      48.642
2014    9        9    12   8    6.00   433.2    7.5      48.632
2014    9        9    12  14    6.00   433.3    7.5      48.621
2014    9        9    12  20    5.99   433.4    7.5      48.610
2014    9        9    12  25    5.99   433.5    7.5      48.600
2014    9        9    12  31    5.99   433.6    7.4      48.589
2014    9        9    12  37    5.98   433.7    7.4      48.578
2014    9        9    12  42    5.98   433.9    7.4      48.566
2014    9        9    12  48    5.98   434.0    7.4      48.555
2014    9        9    12  53    5.97   434.1    7.4      48.544
2014    9        9    12  59    5.97   434.2    7.4      48.532
2014    9        9    13   5    5.96   434.3    7.4      48.520
2014    9        9    13  10    5.96   434.4    7.4      48.509
2014    9        9    13  16    5.96   434.5    7.4      48.497
2014    9        9    13  22    5.95   434.6    7.4      48.486
2014    9        9    13  27    5.95   434.7    7.4      48.474
2014    9        9    13  33    5.95   434.7    7.4      48.463
2014    9        9    13  38    5.94   434.8    7.4      48.452
2014    9        9    13  44    5.94   434.9    7.4      48.441
2014    9        9    13  50    5.94   435.0    7.4      48.430
2014    9        9    13  55    5.93   435.1    7.3      48.420
2014    9        9    14   1    5.93   435.2    7.3      48.410
2014    9        9    14   6    5.93   435.3    7.3      48.400
2014    9        9    14  12    5.93   435.4    7.3      48.392
2014    9        9    14  18    5.92   435.4    7.3      48.383
2014    9        9    14  23    5.92   435.5    7.3      48.375
2014    9        9    14  29    5.92   435.6    7.3      48.368
2014    9        9    14  35    5.91   435.7    7.3      48.362
2014    9        9    14  40    5.91   435.7    7.3      48.356
2014    9        9    14  46    5.91   435.8    7.3      48.350
2014    9        9    14  51    5.90   435.9    7.3      48.345
2014    9        9    14  57    5.90   436.0    7.3      48.340
2014    9        9    15   3    5.90   436.0    7.3      48.337
2014    9        9    15   8    5.90   436.1    7.3      48.334
2014    9        9    15  14    5.89   436.2    7.3      48.332
2014    9        9    15  20    5.89   436.3    7.3      48.330
2014    9        9    15  25    5.89   436.3    7.3      48.328
2014    9        9    15  31    5.88   436.4    7.3      48.327
2014    9        9    15  36    5.88   436.5    7.3      48.326
2014    9        9    15  42    5.88   436.6    7.3      48.325
2014    9        9    15  48    5.88   436.6    7.3      48.325
2014    9        9    15  53    5.87   436.7    7.3      48.324
2014    9        9    15  59    5.87   436.8    7.3      48.323
2014    9        9    16   4    5.87   436.9    7.2      48.321
2014    9        9    16  10    5.87   436.9    7.2      48.320
2014    9        9    16  16    5.86   437.0    7.2      48.318
2014    9        9    16  21    5.86   437.1    7.2      48.316
2014    9        9    16  27    5.86   437.1    7.2      48.314
2014    9        9    16  33    5.86   437.2    7.2      48.312
2014    9        9    16  38    5.85   437.3    7.2      48.310
2014    9        9    16  44    5.85   437.4    7.2      48.307
2014    9        9    16  49    5.85   437.4    7.2      48.304
2014    9        9    16  55    5.85   437.5    7.2      48.302
2014    9        9    17   1    5.84   437.6    7.2      48.298
2014    9        9    17   6    5.84   437.7    7.2      48.295
2014    9        9    17  12    5.84   437.7    7.2      48.292
2014    9        9    17  18    5.84   437.8    7.2      48.288
2014    9        9    17  23    5.83   437.9    7.2      48.285
2014    9        9    17  29    5.83   437.9    7.2      48.281
2014    9        9    17  34    5.83   438.0    7.2      48.278
2014    9        9    17  40    5.83   438.1    7.2      48.274
2014    9        9    17  46    5.83   438.1    7.2      48.270
2014    9        9    17  51    5.82   438.2    7.2      48.266
2014    9        9    17  57    5.82   438.3    7.2      48.262
2014    9        9    18   2    5.82   438.3    7.2      48.258
2014    9        9    18   8    5.82   438.4    7.2      48.254
2014    9        9    18  14    5.81   438.5    7.2      48.249
2014    9        9    18  19    5.81   438.5    7.2      48.245
2014    9        9    18  25    5.81   438.6    7.2      48.241
2014    9        9    18  31    5.81   438.7    7.1      48.237
2014    9        9    18  36    5.80   438.7    7.1      48.233
2014    9        9    18  42    5.80   438.8    7.1      48.229
2014    9        9    18  47    5.80   438.9    7.1      48.224
2014    9        9    18  53    5.80   438.9    7.1      48.220
2014    9        9    18  59    5.80   439.0    7.1      48.216
2014    9        9    19   4    5.79   439.1    7.1      48.212
2014    9        9    19  10    5.79   439.1    7.1      48.208
2014    9        9    19  16    5.79   439.2    7.1      48.204
2014    9        9    19  21    5.79   439.3    7.1      48.200
2014    9        9    19  27    5.78   439.4    7.1      48.197
2014    9        9    19  32    5.78   439.4    7.1      48.193
2014    9        9    19  38    5.78   439.5    7.1      48.189
2014    9        9    19  44    5.78   439.5    7.1      48.185
2014    9        9    19  49    5.78   439.6    7.1      48.182
2014    9        9    19  55    5.77   439.7    7.1      48.178
2014    9        9    20   1    5.77   439.7    7.1      48.174
2014    9        9    20   6    5.77   439.8    7.1      48.171
2014    9        9    20  12    5.77   439.9    7.1      48.167
2014    9        9    20  17    5.77   439.9    7.1      48.164
2014    9        9    20  23    5.76   440.0    7.1      48.161
2014    9        9    20  29    5.76   440.0    7.1      48.158
2014    9        9    20  34    5.76   440.1    7.1      48.155
2014    9        9    20  40    5.76   440.2    7.1      48.152
2014    9        9    20  45    5.76   440.2    7.1      48.150
2014    9        9    20  51    5.75   440.3    7.1      48.148
2014    9        9    20  57    5.75   440.3    7.1      48.146
2014    9        9    21   2    5.75   440.4    7.1      48.144
2014    9        9    21   8    5.75   440.5    7.1      48.143
2014    9        9    21  14    5.75   440.5    7.1      48.141
2014    9        9    21  19    5.75   440.6    7.1      48.141
2014    9        9    21  25    5.74   440.6    7.1      48.140
2014    9        9    21  30    5.74   440.7    7.1      48.140
2014    9        9    21  36    5.74   440.7    7.0      48.140
2014    9        9    21  42    5.74   440.8    7.0      48.141
2014    9        9    21  47    5.74   440.8    7.0      48.141
2014    9        9    21  53    5.74   440.9    7.0      48.142
2014    9        9    21  59    5.73   440.9    7.0      48.144
2014    9        9    22   4    5.73   441.0    7.0      48.146
2014    9        9    22  10    5.73   441.1    7.0      48.147
2014    9        9    22  15    5.73   441.1    7.0      48.149
2014    9        9    22  21    5.73   441.2    7.0      48.151
2014    9        9    22  27    5.73   441.2    7.0      48.154
2014    9        9    22  32    5.73   441.3    7.0      48.156
2014    9        9    22  38    5.73   441.3    7.0      48.158
2014    9        9    22  43    5.72   441.4    7.0      48.161
2014    9        9    22  49    5.72   441.4    7.0      48.163
2014    9        9    22  55    5.72   441.5    7.0      48.166
2014    9        9    23   0    5.72   441.5    7.0      48.168
2014    9        9    23   6    5.72   441.6    7.0      48.170
2014    9        9    23  12    5.72   441.6    7.0      48.173
2014    9        9    23  17    5.72   441.7    7.0      48.175
2014    9        9    23  23    5.72   441.7    7.0      48.177
2014    9        9    23  28    5.72   441.8    7.0      48.180
2014    9        9    23  34    5.71   441.8    7.0      48.182
2014    9        9    23  40    5.71   441.9    7.0      48.184
2014    9        9    23  45    5.71   441.9    7.0      48.187
2014    9        9    23  51    5.71   442.0    7.0      48.189
2014    9        9    23  57    5.71   442.1    7.0      48.191
2014    9       10     0   2    5.71   442.1    7.0      48.194
2014    9       10     0   8    5.71   442.2    7.0      48.196
2014    9       10     0  13    5.71   442.2    7.0      48.198
2014    9       10     0  19    5.71   442.3    7.0      48.200
2014    9       10     0  25    5.70   442.3    7.0      48.202
2014    9       10     0  30    5.70   442.4    7.0      48.204
2014    9       10     0  36    5.70   442.4    7.0      48.206
2014    9       10     0  41    5.70   442.5    7.0      48.208
2014    9       10     0  47    5.70   442.5    7.0      48.210
2014    9       10     0  53    5.70   442.6    7.0      48.212
2014    9       10     0  58    5.70   442.6    7.0      48.213
2014    9       10     1   4    5.70   442.7    7.0      48.215
2014    9       10     1  10    5.70   442.7    7.0      48.217
2014    9       10     1  15    5.70   442.8    7.0      48.219
2014    9       10     1  21    5.69   442.8    7.0      48.220
2014    9       10     1  26    5.69   442.9    7.0      48.222
2014    9       10     1  32    5.69   442.9    7.0      48.224
2014    9       10     1  38    5.69   443.0    7.0      48.225
2014    9       10     1  43    5.69   443.0    7.0      48.227
2014    9       10     1  49    5.69   443.1    7.0      48.229
2014    9       10     1  55    5.69   443.1    7.0      48.231
2014    9       10     2   0    5.69   443.2    7.0      48.233
2014    9       10     2   6    5.69   443.2    7.0      48.236
2014    9       10     2  11    5.69   443.3    7.0      48.238
2014    9       10     2  17    5.69   443.3    7.0      48.240
2014    9       10     2  23    5.68   443.4    7.0      48.243
2014    9       10     2  28    5.68   443.4    7.0      48.246
2014    9       10     2  34    5.68   443.5    7.0      48.249
2014    9       10     2  39    5.68   443.5    7.0      48.253
2014    9       10     2  45    5.68   443.6    7.0      48.257
2014    9       10     2  51    5.68   443.6    7.0      48.261
2014    9       10     2  56    5.68   443.7    7.0      48.265
2014    9       10     3   2    5.68   443.7    7.0      48.269
2014    9       10     3   8    5.68   443.8    7.0      48.274
2014    9       10     3  13    5.68   443.8    7.0      48.280
2014    9       10     3  19    5.68   443.9    7.0      48.285
2014    9       10     3  24    5.68   443.9    6.9      48.291
2014    9       10     3  30    5.68   444.0    6.9      48.298
2014    9       10     3  36    5.68   444.0    6.9      48.304
2014    9       10     3  41    5.67   444.1    6.9      48.312
2014    9       10     3  47    5.67   444.1    6.9      48.319
2014    9       10     3  53    5.67   444.2    6.9      48.327
2014    9       10     3  58    5.67   444.2    6.9      48.336
2014    9       10     4   4    5.67   444.3    6.9      48.344
2014    9       10     4   9    5.67   444.3    6.9      48.354
2014    9       10     4  15    5.67   444.4    6.9      48.363
2014    9       10     4  21    5.67   444.4    6.9      48.373
2014    9       10     4  26    5.67   444.5    6.9      48.383
2014    9       10     4  32    5.67   444.5    6.9      48.394
2014    9       10     4  37    5.67   444.6    6.9      48.405
2014    9       10     4  43    5.67   444.6    6.9      48.416
2014    9       10     4  49    5.67   444.7    6.9      48.427
2014    9       10     4  54    5.67   444.8    6.9      48.438
2014    9       10     5   0    5.67   444.8    6.9      48.449
2014    9       10     5   6    5.67   444.9    6.9      48.461
2014    9       10     5  11    5.67   444.9    6.9      48.473
2014    9       10     5  17    5.67   445.0    6.9      48.484
2014    9       10     5  22    5.67   445.0    6.9      48.496
2014    9       10     5  28    5.67   445.1    6.9      48.508
2014    9       10     5  34    5.67   445.1    6.9      48.519
2014    9       10     5  39    5.67   445.2    6.9      48.531
2014    9       10     5  45    5.67   445.3    6.9      48.543
2014    9       10     5  51    5.67   445.3    6.9      48.554
2014    9       10     5  56    5.67   445.4    6.9      48.566
2014    9       10     6   2    5.67   445.4    6.9      48.578
2014    9       10     6   7    5.67   445.5    6.9      48.589
2014    9       10     6  13    5.67   445.5    6.9      48.601
2014    9       10     6  19    5.67   445.6    6.9      48.612
2014    9       10     6  24    5.67   445.7    6.9      48.624
2014    9       10     6  30    5.67   445.7    6.9      48.636
2014    9       10     6  35    5.67   445.8    6.9      48.647
2014    9       10     6  41    5.67   445.8    6.9      48.658
2014    9       10     6  47    5.67   445.9    6.9      48.670
2014    9       10     6  52    5.67   445.9    6.9      48.681
2014    9       10     6  58    5.67   446.0    6.9      48.693
2014    9       10     7   4    5.67   446.1    6.9      48.704
2014    9       10     7   9    5.66   446.1    6.9      48.715
2014    9       10     7  15    5.66   446.2    6.9      48.727
2014    9       10     7  20    5.66   446.2    6.9      48.738
2014    9       10     7  26    5.66   446.3    6.9      48.749
2014    9       10     7  32    5.66   446.4    6.9      48.761
2014    9       10     7  37    5.66   446.4    6.9      48.772
2014    9       10     7  43    5.66   446.5    6.9      48.783
2014    9       10     7  49    5.66   446.5    6.9      48.794
2014    9       10     7  54    5.66   446.6    6.9      48.806
2014    9       10     8   0    5.66   446.7    6.9      48.817
2014    9       10     8   5    5.66   446.7    6.9      48.828
2014    9       10     8  11    5.66   446.8    6.9      48.840
2014    9       10     8  17    5.66   446.8    6.9      48.851
2014    9       10     8  22    5.66   446.9    6.9      48.863
2014    9       10     8  28    5.66   447.0    6.9      48.874
2014    9       10     8  33    5.66   447.0    6.9      48.886
2014    9       10     8  39    5.66   447.1    6.9      48.897
2014    9       10     8  45    5.66   447.1    6.9      48.909
2014    9       10     8  50    5.66   447.2    6.9      48.921
2014    9       10     8  56    5.66   447.3    6.9      48.933
2014    9       10     9   2    5.66   447.3    6.9      48.945
2014    9       10     9   7    5.66   447.4    6.9      48.958
2014    9       10     9  13    5.66   447.4    6.9      48.970
2014    9       10     9  18    5.66   447.5    6.9      48.982
2014    9       10     9  24    5.66   447.6    6.9      48.995
2014    9       10     9  30    5.66   447.6    6.9      49.008
2014    9       10     9  35    5.66   447.7    6.9      49.021
2014    9       10     9  41    5.66   447.8    6.9      49.034
2014    9       10     9  47    5.66   447.8    6.9      49.047
2014    9       10     9  52    5.66   447.9    6.9      49.060
2014    9       10     9  58    5.66   447.9    6.9      49.074
2014    9       10    10   3    5.66   448.0    6.9      49.087
2014    9       10    10   9    5.66   448.1    6.9      49.101
2014    9       10    10  15    5.66   448.1    6.9      49.115
2014    9       10    10  20    5.66   448.2    6.9      49.129
2014    9       10    10  26    5.66   448.3    6.9      49.144
2014    9       10    10  31    5.66   448.3    6.9      49.158
2014    9       10    10  37    5.66   448.4    6.9      49.172
2014    9       10    10  43    5.66   448.5    6.9      49.187
2014    9       10    10  48    5.66   448.5    6.9      49.202
2014    9       10    10  54    5.66   448.6    6.9      49.217
2014    9       10    11   0    5.66   448.7    6.9      49.232
2014    9       10    11   5    5.66   448.7    6.9      49.248
2014    9       10    11  11    5.66   448.8    6.9      49.263
2014    9       10    11  16    5.66   448.9    6.9      49.279
2014    9       10    11  22    5.66   448.9    6.9      49.295
2014    9       10    11  28    5.66   449.0    6.9      49.311
2014    9       10    11  33    5.66   449.1    6.9      49.327
2014    9       10    11  39    5.66   449.1    6.9      49.343
2014    9       10    11  45    5.66   449.2    6.9      49.359
2014    9       10    11  50    5.66   449.3    6.9      49.375
2014    9       10    11  56    5.66   449.3    6.9      49.391
2014    9       10    12   1    5.66   449.4    6.9      49.407
2014    9       10    12   7    5.66   449.5    6.9      49.423
2014    9       10    12  13    5.66   449.5    6.9      49.439
2014    9       10    12  18    5.66   449.6    6.9      49.455
2014    9       10    12  24    5.66   449.7    6.9      49.471
2014    9       10    12  29    5.66   449.7    6.9      49.487
2014    9       10    12  35    5.66   449.8    6.9      49.503
2014    9       10    12  41    5.66   449.9    6.9      49.519
2014    9       10    12  46    5.66   450.0    6.9      49.535
2014    9       10    12  52    5.66   450.0    6.9      49.551
2014    9       10    12  58    5.66   450.1    6.9      49.567
2014    9       10    13   3    5.66   450.2    6.9      49.584
2014    9       10    13   9    5.66   450.2    6.9      49.600
2014    9       10    13  14    5.66   450.3    6.9      49.616
2014    9       10    13  20    5.66   450.4    6.9      49.633
2014    9       10    13  26    5.66   450.5    6.9      49.650
2014    9       10    13  31    5.66   450.5    6.9      49.667
2014    9       10    13  37    5.66   450.6    6.9      49.684
2014    9       10    13  43    5.66   450.7    6.9      49.701
2014    9       10    13  48    5.66   450.7    6.9      49.719
2014    9       10    13  54    5.66   450.8    6.9      49.736
2014    9       10    13  59    5.66   450.9    6.9      49.755
2014    9       10    14   5    5.66   451.0    6.9      49.774
2014    9       10    14  11    5.66   451.0    6.9      49.793
2014    9       10    14  16    5.66   451.1    6.9      49.813
2014    9       10    14  22    5.66   451.2    6.9      49.834
2014    9       10    14  28    5.66   451.3    6.9      49.855
2014    9       10    14  33    5.66   451.4    6.9      49.877
2014    9       10    14  39    5.66   451.5    6.9      49.898
2014    9       10    14  44    5.66   451.5    6.9      49.919
2014    9       10    14  50    5.66   451.6    6.9      49.940
2014    9       10    14  56    5.66   451.7    6.9      49.961
2014    9       10    15   1    5.66   451.8    6.9      49.981
2014    9       10    15   7    5.66   451.9    6.9      50.002
2014    9       10    15  12    5.66   452.0    6.9      50.022
2014    9       10    15  18    5.66   452.0    6.9      50.043
2014    9       10    15  24    5.66   452.1    6.9      50.063
2014    9       10    15  29    5.66   452.2    6.9      50.083
2014    9       10    15  35    5.66   452.3    6.9      50.102
2014    9       10    15  41    5.66   452.4    6.9      50.122
2014    9       10    15  46    5.66   452.5    6.9      50.141
2014    9       10    15  52    5.66   452.5    6.9      50.160
2014    9       10    15  57    5.66   452.6    6.9      50.179
2014    9       10    16   3    5.66   452.7    6.9      50.198
2014    9       10    16   9    5.66   452.8    6.9      50.216
2014    9       10    16  14    5.66   452.9    6.9      50.235
2014    9       10    16  20    5.66   452.9    6.9      50.253
2014    9       10    16  26    5.66   453.0    6.9      50.271
2014    9       10    16  31    5.66   453.1    6.9      50.288
2014    9       10    16  37    5.66   453.2    6.9      50.306
2014    9       10    16  42    5.66   453.3    6.9      50.323
2014    9       10    16  48    5.66   453.4    6.9      50.341
2014    9       10    16  54    5.66   453.4    6.9      50.358
2014    9       10    16  59    5.66   453.5    6.9      50.375
2014    9       10    17   5    5.66   453.6    6.9      50.392
2014    9       10    17  10    5.66   453.7    6.9      50.408
2014    9       10    17  16    5.66   453.8    6.9      50.425
2014    9       10    17  22    5.66   453.8    6.9      50.442
2014    9       10    17  27    5.66   453.9    6.9      50.459
2014    9       10    17  33    5.66   454.0    6.9      50.475
2014    9       10    17  39    5.66   454.1    6.9      50.492
2014    9       10    17  44    5.66   454.2    6.9      50.510
2014    9       10    17  50    5.66   454.3    6.9      50.528
2014    9       10    17  55    5.66   454.4    6.9      50.546
2014    9       10    18   1    5.66   454.4    6.9      50.565
2014    9       10    18   7    5.66   454.5    6.9      50.584
2014    9       10    18  12    5.66   454.6    6.9      50.604
2014    9       10    18  18    5.66   454.7    6.9      50.623
2014    9       10    18  24    5.66   454.8    6.9      50.643
2014    9       10    18  29    5.66   454.9    6.9      50.663
2014    9       10    18  35    5.66   455.0    6.9      50.683
2014    9       10    18  40    5.66   455.1    6.9      50.702
2014    9       10    18  46    5.66   455.2    6.9      50.721
2014    9       10    18  52    5.66   455.3    6.9      50.740
2014    9       10    18  57    5.66   455.4    6.9      50.758
2014    9       10    19   3    5.66   455.4    6.9      50.777
2014    9       10    19   8    5.66   455.5    6.9      50.794
2014    9       10    19  14    5.66   455.6    6.9      50.812
2014    9       10    19  20    5.66   455.7    6.9      50.829
2014    9       10    19  25    5.66   455.8    6.9      50.846
2014    9       10    19  31    5.66   455.9    6.9      50.862
2014    9       10    19  37    5.66   456.0    6.9      50.878
2014    9       10    19  42    5.66   456.1    6.9      50.894
2014    9       10    19  48    5.66   456.2    6.9      50.910
2014    9       10    19  53    5.66   456.2    6.9      50.925
2014    9       10    19  59    5.66   456.3    6.9      50.940
2014    9       10    20   5    5.66   456.4    6.9      50.955
2014    9       10    20  10    5.66   456.5    6.9      50.969
2014    9       10    20  16    5.66   456.6    6.9      50.983
2014    9       10    20  22    5.66   456.7    6.9      50.998
2014    9       10    20  27    5.66   456.8    6.9      51.012
2014    9       10    20  33    5.66   456.9    6.9      51.026
2014    9       10    20  38    5.66   456.9    6.9      51.039
2014    9       10    20  44    5.66   457.0    6.9      51.053
2014    9       10    20  50    5.66   457.1    6.9      51.067
2014    9       10    20  55    5.66   457.2    6.9      51.081
2014    9       10    21   1    5.66   457.3    6.9      51.095
2014    9       10    21   6    5.66   457.4    6.8      51.109
2014    9       10    21  12    5.66   457.5    6.8      51.123
2014    9       10    21  18    5.66   457.6    6.8      51.137
2014    9       10    21  23    5.66   457.6    6.8      51.152
2014    9       10    21  29    5.65   457.7    6.8      51.167
2014    9       10    21  35    5.65   457.8    6.8      51.183
2014    9       10    21  40    5.65   457.9    6.8      51.200
2014    9       10    21  46    5.65   458.0    6.8      51.217
2014    9       10    21  51    5.65   458.1    6.8      51.235
2014    9       10    21  57    5.65   458.2    6.8      51.253
2014    9       10    22   3    5.65   458.3    6.8      51.271
2014    9       10    22   8    5.65   458.4    6.8      51.289
2014    9       10    22  14    5.65   458.5    6.8      51.306
2014    9       10    22  20    5.65   458.6    6.8      51.324
2014    9       10    22  25    5.65   458.7    6.8      51.342
2014    9       10    22  31    5.65   458.8    6.8      51.359
2014    9       10    22  36    5.65   458.9    6.8      51.376
2014    9       10    22  42    5.65   459.0    6.8      51.393
2014    9       10    22  48    5.65   459.1    6.8      51.410
2014    9       10    22  53    5.65   459.2    6.8      51.426
2014    9       10    22  59    5.65   459.3    6.8      51.443
2014    9       10    23   4    5.65   459.4    6.8      51.459
2014    9       10    23  10    5.65   459.5    6.8      51.475
2014    9       10    23  16    5.65   459.6    6.8      51.491
2014    9       10    23  21    5.65   459.7    6.8      51.508
2014    9       10    23  27    5.65   459.8    6.8      51.525
2014    9       10    23  33    5.65   459.9    6.8      51.543
2014    9       10    23  38    5.65   460.0    6.8      51.561
2014    9       10    23  44    5.65   460.1    6.8      51.580
2014    9       10    23  49    5.65   460.2    6.8      51.598
2014    9       10    23  55    5.65   460.3    6.8      51.617
2014    9       11     0   1    5.65   460.4    6.8      51.636
2014    9       11     0   6    5.65   460.5    6.8      51.654
2014    9       11     0  12    5.65   460.6    6.8      51.672
2014    9       11     0  18    5.64   460.7    6.8      51.690
2014    9       11     0  23    5.64   460.8    6.8      51.707
2014    9       11     0  29    5.64   460.9    6.8      51.724
2014    9       11     0  34    5.64   461.0    6.8      51.742
2014    9       11     0  40    5.64   461.1    6.8      51.758
2014    9       11     0  46    5.64   461.2    6.8      51.775
2014    9       11     0  51    5.64   461.3    6.8      51.791
2014    9       11     0  57    5.64   461.4    6.8      51.808
2014    9       11     1   2    5.64   461.5    6.8      51.825
2014    9       11     1   8    5.64   461.6    6.8      51.841
2014    9       11     1  14    5.64   461.7    6.8      51.859
2014    9       11     1  19    5.64   461.9    6.8      51.876
2014    9       11     1  25    5.64   462.0    6.8      51.894
2014    9       11     1  31    5.64   462.1    6.8      51.913
2014    9       11     1  36    5.64   462.2    6.8      51.931
2014    9       11     1  42    5.64   462.3    6.8      51.949
2014    9       11     1  47    5.64   462.4    6.8      51.968
2014    9       11     1  53    5.64   462.5    6.8      51.986
2014    9       11     1  59    5.64   462.6    6.8      52.003
2014    9       11     2   4    5.64   462.7    6.8      52.020
2014    9       11     2  10    5.63   462.8    6.8      52.036
2014    9       11     2  16    5.63   462.9    6.8      52.051
2014    9       11     2  21    5.63   463.1    6.8      52.066
2014    9       11     2  27    5.63   463.2    6.8      52.081
2014    9       11     2  32    5.63   463.3    6.8      52.094
2014    9       11     2  38    5.63   463.4    6.7      52.107
2014    9       11     2  44    5.63   463.5    6.7      52.120
2014    9       11     2  49    5.63   463.6    6.7      52.131
2014    9       11     2  55    5.63   463.7    6.7      52.142
2014    9       11     3   0    5.63   463.8    6.7      52.153
2014    9       11     3   6    5.63   463.9    6.7      52.163
2014    9       11     3  12    5.62   464.0    6.7      52.173
2014    9       11     3  17    5.62   464.1    6.7      52.182
2014    9       11     3  23    5.62   464.2    6.7      52.191
2014    9       11     3  29    5.62   464.3    6.7      52.199
2014    9       11     3  34    5.62   464.4    6.7      52.207
2014    9       11     3  40    5.62   464.5    6.7      52.215
2014    9       11     3  45    5.62   464.6    6.7      52.221
2014    9       11     3  51    5.62   464.7    6.7      52.228
2014    9       11     3  57    5.62   464.8    6.7      52.235
2014    9       11     4   2    5.61   464.9    6.7      52.241
2014    9       11     4   8    5.61   465.0    6.7      52.246
2014    9       11     4  14    5.61   465.1    6.7      52.252
2014    9       11     4  19    5.61   465.2    6.7      52.257
2014    9       11     4  25    5.61   465.3    6.7      52.262
2014    9       11     4  30    5.61   465.4    6.7      52.267
2014    9       11     4  36    5.61   465.5    6.7      52.271
2014    9       11     4  42    5.61   465.6    6.7      52.276
2014    9       11     4  47    5.61   465.7    6.7      52.280
2014    9       11     4  53    5.60   465.8    6.7      52.284
2014    9       11     4  58    5.60   465.9    6.7      52.287
2014    9       11     5   4    5.60   466.0    6.6      52.291
2014    9       11     5  10    5.60   466.1    6.6      52.295
2014    9       11     5  15    5.60   466.2    6.6      52.298
2014    9       11     5  21    5.60   466.3    6.6      52.301
2014    9       11     5  27    5.60   466.4    6.6      52.304
2014    9       11     5  32    5.60   466.5    6.6      52.307
2014    9       11     5  38    5.59   466.6    6.6      52.310
2014    9       11     5  43    5.59   466.7    6.6      52.313
2014    9       11     5  49    5.59   466.8    6.6      52.315
2014    9       11     5  55    5.59   466.9    6.6      52.318
2014    9       11     6   0    5.59   467.0    6.6      52.320
2014    9       11     6   6    5.59   467.1    6.6      52.322
2014    9       11     6  12    5.59   467.2    6.6      52.324
2014    9       11     6  17    5.58   467.3    6.6      52.325
2014    9       11     6  23    5.58   467.3    6.6      52.327
2014    9       11     6  28    5.58   467.4    6.6      52.328
2014    9       11     6  34    5.58   467.5    6.6      52.330
2014    9       11     6  40    5.58   467.6    6.6      52.331
2014    9       11     6  45    5.58   467.7    6.6      52.333
2014    9       11     6  51    5.58   467.8    6.6      52.335
2014    9       11     6  56    5.58   467.9    6.6      52.337
2014    9       11     7   2    5.57   468.0    6.6      52.340
2014    9       11     7   8    5.57   468.1    6.6      52.344
2014    9       11     7  13    5.57   468.2    6.6      52.349
2014    9       11     7  19    5.57   468.3    6.6      52.354
2014    9       11     7  25    5.57   468.3    6.6      52.360
2014    9       11     7  30    5.57   468.4    6.5      52.365
2014    9       11     7  36    5.57   468.5    6.5      52.371
2014    9       11     7  41    5.57   468.6    6.5      52.376
2014    9       11     7  47    5.56   468.7    6.5      52.382
2014    9       11     7  53    5.56   468.8    6.5      52.388
2014    9       11     7  58    5.56   468.9    6.5      52.393
2014    9       11     8   4    5.56   469.0    6.5      52.399
2014    9       11     8  10    5.56   469.1    6.5      52.405
2014    9       11     8  15    5.56   469.2    6.5      52.410
2014    9       11     8  21    5.56   469.3    6.5      52.416
2014    9       11     8  26    5.56   469.4    6.5      52.421
2014    9       11     8  32    5.55   469.4    6.5      52.427
2014    9       11     8  38    5.55   469.5    6.5      52.432
2014    9       11     8  43    5.55   469.6    6.5      52.438
2014    9       11     8  49    5.55   469.7    6.5      52.444
2014    9       11     8  54    5.55   469.8    6.5      52.451
2014    9       11     9   0    5.55   469.9    6.5      52.457
2014    9       11     9   6    5.55   470.0    6.5      52.463
2014    9       11     9  11    5.54   470.1    6.5      52.469
2014    9       11     9  17    5.54   470.2    6.5      52.475
2014    9       11     9  23    5.54   470.3    6.5      52.480
2014    9       11     9  28    5.54   470.4    6.5      52.485
2014    9       11     9  34    5.54   470.4    6.5      52.490
2014    9       11     9  39    5.54   470.5    6.5      52.494
2014    9       11     9  45    5.54   470.6    6.5      52.498
2014    9       11     9  51    5.54   470.7    6.5      52.502
2014    9       11     9  56    5.53   470.8    6.5      52.505
2014    9       11    10   2    5.53   470.9    6.5      52.507
2014    9       11    10   8    5.53   471.0    6.5      52.509
2014    9       11    10  13    5.53   471.1    6.5      52.511
2014    9       11    10  19    5.53   471.1    6.5      52.513
2014    9       11    10  24    5.53   471.2    6.4      52.514
2014    9       11    10  30    5.52   471.3    6.4      52.515
2014    9       11    10  36    5.52   471.4    6.4      52.515
2014    9       11    10  41    5.52   471.5    6.4      52.515
2014    9       11    10  47    5.52   471.5    6.4      52.515
2014    9       11    10  53    5.52   471.6    6.4      52.515
2014    9       11    10  58    5.52   471.7    6.4      52.514
2014    9       11    11   4    5.52   471.8    6.4      52.513
2014    9       11    11   9    5.51   471.9    6.4      52.512
2014    9       11    11  15    5.51   471.9    6.4      52.510
2014    9       11    11  21    5.51   472.0    6.4      52.509
2014    9       11    11  26    5.51   472.1    6.4      52.507
2014    9       11    11  32    5.51   472.2    6.4      52.505
2014    9       11    11  37    5.51   472.3    6.4      52.502
2014    9       11    11  43    5.51   472.3    6.4      52.500
2014    9       11    11  49    5.50   472.4    6.4      52.498
2014    9       11    11  54    5.50   472.5    6.4      52.495
2014    9       11    12   0    5.50   472.6    6.4      52.492
2014    9       11    12   6    5.50   472.6    6.4      52.490
2014    9       11    12  11    5.50   472.7    6.4      52.487
2014    9       11    12  17    5.50   472.8    6.4      52.484
2014    9       11    12  22    5.50   472.9    6.4      52.481
2014    9       11    12  28    5.49   472.9    6.4      52.479
2014    9       11    12  34    5.49   473.0    6.4      52.476
2014    9       11    12  39    5.49   473.1    6.4      52.473
2014    9       11    12  45    5.49   473.2    6.4      52.471
2014    9       11    12  51    5.49   473.3    6.4      52.470
2014    9       11    12  56    5.49   473.3    6.4      52.468
2014    9       11    13   2    5.49   473.4    6.4      52.468
2014    9       11    13   7    5.49   473.5    6.3      52.468
2014    9       11    13  13    5.48   473.6    6.3      52.468
2014    9       11    13  19    5.48   473.6    6.3      52.468
2014    9       11    13  24    5.48   473.7    6.3      52.468
2014    9       11    13  30    5.48   473.8    6.3      52.467
2014    9       11    13  35    5.48   473.9    6.3      52.466
2014    9       11    13  41    5.48   473.9    6.3      52.465
2014    9       11    13  47    5.48   474.0    6.3      52.463
2014    9       11    13  52    5.47   474.1    6.3      52.462
2014    9       11    13  58    5.47   474.1    6.3      52.460
2014    9       11    14   4    5.47   474.2    6.3      52.458
2014    9       11    14   9    5.47   474.3    6.3      52.455
2014    9       11    14  15    5.47   474.3    6.3      52.453
2014    9       11    14  20    5.47   474.4    6.3      52.450
2014    9       11    14  26    5.47   474.5    6.3      52.447
2014    9       11    14  32    5.46   474.5    6.3      52.444
2014    9       11    14  37    5.46   474.6    6.3      52.441
2014    9       11    14  43    5.46   474.6    6.3      52.437
2014    9       11    14  49    5.46   474.7    6.3      52.434
2014    9       11    14  54    5.46   474.8    6.3      52.431
2014    9       11    15   0    5.46   474.8    6.3      52.428
2014    9       11    15   5    5.46   474.9    6.3      52.425
2014    9       11    15  11    5.46   475.0    6.3      52.422
2014    9       11    15  17    5.45   475.0    6.3      52.419
2014    9       11    15  22    5.45   475.1    6.3      52.416
2014    9       11    15  28    5.45   475.1    6.3      52.413
2014    9       11    15  33    5.45   475.2    6.3      52.410
2014    9       11    15  39    5.45   475.3    6.3      52.407
2014    9       11    15  45    5.45   475.3    6.3      52.405
2014    9       11    15  50    5.45   475.4    6.3      52.402
2014    9       11    15  56    5.45   475.4    6.3      52.400
2014    9       11    16   2    5.45   475.5    6.2      52.398
2014    9       11    16   7    5.44   475.6    6.2      52.395
2014    9       11    16  13    5.44   475.6    6.2      52.393
2014    9       11    16  18    5.44   475.7    6.2      52.391
2014    9       11    16  24    5.44   475.7    6.2      52.389
2014    9       11    16  30    5.44   475.8    6.2      52.387
2014    9       11    16  35    5.44   475.8    6.2      52.385
2014    9       11    16  41    5.44   475.9    6.2      52.384
2014    9       11    16  47    5.44   476.0    6.2      52.382
2014    9       11    16  52    5.44   476.0    6.2      52.380
2014    9       11    16  58    5.44   476.1    6.2      52.379
2014    9       11    17   3    5.43   476.1    6.2      52.377
2014    9       11    17   9    5.43   476.2    6.2      52.375
2014    9       11    17  15    5.43   476.2    6.2      52.374
2014    9       11    17  20    5.43   476.3    6.2      52.372
2014    9       11    17  26    5.43   476.3    6.2      52.371
2014    9       11    17  31    5.43   476.4    6.2      52.369
2014    9       11    17  37    5.43   476.5    6.2      52.368
2014    9       11    17  43    5.43   476.5    6.2      52.367
2014    9       11    17  48    5.43   476.6    6.2      52.366
2014    9       11    17  54    5.43   476.6    6.2      52.365
2014    9       11    18   0    5.43   476.7    6.2      52.364
2014    9       11    18   5    5.42   476.7    6.2      52.363
2014    9       11    18  11    5.42   476.8    6.2      52.362
2014    9       11    18  16    5.42   476.8    6.2      52.360
2014    9       11    18  22    5.42   476.9    6.2      52.359
2014    9       11    18  28    5.42   476.9    6.2      52.358
2014    9       11    18  33    5.42   477.0    6.2      52.356
2014    9       11    18  39    5.42   477.0    6.2      52.355
2014    9       11    18  45    5.42   477.1    6.2      52.353
2014    9       11    18  50    5.42   477.1    6.2      52.352
2014    9       11    18  56    5.42   477.2    6.2      52.351
2014    9       11    19   1    5.42   477.3    6.2      52.350
2014    9       11    19   7    5.42   477.3    6.2      52.349
2014    9       11    19  13    5.42   477.4    6.2      52.349
2014    9       11    19  18    5.42   477.4    6.2      52.349
2014    9       11    19  24    5.41   477.5    6.2      52.349
2014    9       11    19  29    5.41   477.5    6.2      52.349
2014    9       11    19  35    5.41   477.6    6.2      52.350
2014    9       11    19  41    5.41   477.6    6.2      52.351
2014    9       11    19  46    5.41   477.7    6.2      52.353
2014    9       11    19  52    5.41   477.7    6.2      52.355
2014    9       11    19  58    5.41   477.8    6.2      52.358
2014    9       11    20   3    5.41   477.8    6.2      52.361
2014    9       11    20   9    5.41   477.9    6.2      52.366
2014    9       11    20  14    5.41   478.0    6.2      52.372
2014    9       11    20  20    5.41   478.0    6.2      52.379
2014    9       11    20  26    5.41   478.1    6.2      52.387
2014    9       11    20  31    5.41   478.1    6.2      52.395
2014    9       11    20  37    5.41   478.2    6.2      52.404
2014    9       11    20  43    5.41   478.3    6.2      52.413
2014    9       11    20  48    5.41   478.3    6.2      52.422
2014    9       11    20  54    5.41   478.4    6.2      52.433
2014    9       11    20  59    5.41   478.5    6.2      52.444
2014    9       11    21   5    5.41   478.5    6.2      52.456
2014    9       11    21  11    5.41   478.6    6.2      52.468
2014    9       11    21  16    5.41   478.7    6.2      52.481
2014    9       11    21  22    5.41   478.7    6.2      52.494
2014    9       11    21  27    5.41   478.8    6.2      52.507
2014    9       11    21  33    5.41   478.9    6.2      52.519
2014    9       11    21  39    5.41   478.9    6.2      52.530
2014    9       11    21  44    5.41   479.0    6.2      52.541
2014    9       11    21  50    5.41   479.1    6.2      52.551
2014    9       11    21  56    5.41   479.1    6.1      52.561
2014    9       11    22   1    5.40   479.2    6.1      52.570
2014    9       11    22   7    5.40   479.2    6.1      52.579
2014    9       11    22  12    5.40   479.3    6.1      52.587
2014    9       11    22  18    5.40   479.4    6.1      52.594
2014    9       11    22  24    5.40   479.4    6.1      52.601
2014    9       11    22  29    5.40   479.5    6.1      52.608
2014    9       11    22  35    5.40   479.6    6.1      52.614
2014    9       11    22  41    5.40   479.6    6.1      52.620
2014    9       11    22  46    5.40   479.7    6.1      52.625
2014    9       11    22  52    5.40   479.7    6.1      52.630
2014    9       11    22  57    5.40   479.8    6.1      52.634
2014    9       11    23   3    5.40   479.9    6.1      52.638
2014    9       11    23   9    5.40   479.9    6.1      52.642
2014    9       11    23  14    5.40   480.0    6.1      52.646
2014    9       11    23  20    5.40   480.1    6.1      52.649
2014    9       11    23  25    5.40   480.1    6.1      52.653
2014    9       11    23  31    5.40   480.2    6.1      52.656
2014    9       11    23  37    5.40   480.2    6.1      52.658
2014    9       11    23  42    5.40   480.3    6.1      52.661
2014    9       11    23  48    5.40   480.4    6.1      52.664
2014    9       11    23  54    5.40   480.4    6.1      52.667
2014    9       11    23  59    5.40   480.5    6.1      52.669
2014    9       12     0   5    5.40   480.6    6.1      52.672
