year    month   day   hour  minute  B_enl V_enl   n_enl       T_enl
[year] [month] [day] [hour][minute] [nT]  [km/s]  [cm-3]      [kK]
2014    9       17     0   3    6.67   348.6   11.6      35.944
2014    9       17     0   9    6.67   348.6   11.6      35.986
2014    9       17     0  14    6.68   348.7   11.6      36.029
2014    9       17     0  20    6.69   348.8   11.7      36.071
2014    9       17     0  25    6.69   348.9   11.7      36.113
2014    9       17     0  31    6.70   349.0   11.7      36.155
2014    9       17     0  36    6.71   349.1   11.7      36.197
2014    9       17     0  42    6.71   349.2   11.7      36.238
2014    9       17     0  47    6.72   349.3   11.7      36.280
2014    9       17     0  52    6.73   349.4   11.7      36.322
2014    9       17     0  58    6.73   349.5   11.7      36.363
2014    9       17     1   3    6.74   349.6   11.7      36.404
2014    9       17     1   9    6.74   349.7   11.7      36.444
2014    9       17     1  14    6.75   349.8   11.7      36.485
2014    9       17     1  20    6.76   349.9   11.7      36.525
2014    9       17     1  25    6.76   350.0   11.7      36.565
2014    9       17     1  31    6.77   350.1   11.7      36.605
2014    9       17     1  36    6.77   350.2   11.7      36.644
2014    9       17     1  41    6.78   350.3   11.8      36.684
2014    9       17     1  47    6.79   350.4   11.8      36.723
2014    9       17     1  52    6.79   350.5   11.8      36.762
2014    9       17     1  58    6.80   350.6   11.8      36.800
2014    9       17     2   3    6.81   350.7   11.8      36.839
2014    9       17     2   9    6.81   350.8   11.8      36.878
2014    9       17     2  14    6.82   350.9   11.8      36.917
2014    9       17     2  20    6.82   350.9   11.8      36.955
2014    9       17     2  25    6.83   351.0   11.8      36.994
2014    9       17     2  30    6.84   351.1   11.8      37.033
2014    9       17     2  36    6.84   351.2   11.8      37.072
2014    9       17     2  41    6.85   351.3   11.8      37.112
2014    9       17     2  47    6.86   351.4   11.8      37.151
2014    9       17     2  52    6.86   351.5   11.8      37.191
2014    9       17     2  58    6.87   351.6   11.8      37.231
2014    9       17     3   3    6.88   351.7   11.8      37.272
2014    9       17     3   9    6.88   351.8   11.8      37.313
2014    9       17     3  14    6.89   351.9   11.9      37.355
2014    9       17     3  19    6.90   352.1   11.9      37.397
2014    9       17     3  25    6.90   352.2   11.9      37.440
2014    9       17     3  30    6.91   352.3   11.9      37.483
2014    9       17     3  36    6.92   352.4   11.9      37.527
2014    9       17     3  41    6.92   352.5   11.9      37.572
2014    9       17     3  47    6.93   352.6   11.9      37.617
2014    9       17     3  52    6.94   352.8   11.9      37.662
2014    9       17     3  58    6.94   352.9   11.9      37.708
2014    9       17     4   3    6.95   353.0   11.9      37.755
2014    9       17     4   8    6.96   353.1   11.9      37.801
2014    9       17     4  14    6.96   353.3   11.9      37.847
2014    9       17     4  19    6.97   353.4   11.9      37.894
2014    9       17     4  25    6.98   353.5   11.9      37.941
2014    9       17     4  30    6.98   353.6   12.0      37.987
2014    9       17     4  36    6.99   353.7   12.0      38.034
2014    9       17     4  41    7.00   353.9   12.0      38.082
2014    9       17     4  47    7.00   354.0   12.0      38.129
2014    9       17     4  52    7.01   354.1   12.0      38.177
2014    9       17     4  57    7.02   354.3   12.0      38.225
2014    9       17     5   3    7.02   354.4   12.0      38.274
2014    9       17     5   8    7.03   354.5   12.0      38.324
2014    9       17     5  14    7.04   354.6   12.0      38.374
2014    9       17     5  19    7.04   354.8   12.0      38.425
2014    9       17     5  25    7.05   354.9   12.0      38.476
2014    9       17     5  30    7.06   355.0   12.0      38.528
2014    9       17     5  36    7.06   355.2   12.0      38.580
2014    9       17     5  41    7.07   355.3   12.1      38.633
2014    9       17     5  46    7.08   355.4   12.1      38.686
2014    9       17     5  52    7.08   355.6   12.1      38.739
2014    9       17     5  57    7.09   355.7   12.1      38.792
2014    9       17     6   3    7.10   355.8   12.1      38.845
2014    9       17     6   8    7.10   356.0   12.1      38.899
2014    9       17     6  14    7.11   356.1   12.1      38.953
2014    9       17     6  19    7.12   356.2   12.1      39.008
2014    9       17     6  25    7.12   356.4   12.1      39.064
2014    9       17     6  30    7.13   356.5   12.1      39.120
2014    9       17     6  35    7.14   356.7   12.1      39.178
2014    9       17     6  41    7.14   356.8   12.1      39.236
2014    9       17     6  46    7.15   356.9   12.2      39.294
2014    9       17     6  52    7.16   357.1   12.2      39.353
2014    9       17     6  57    7.17   357.2   12.2      39.413
2014    9       17     7   3    7.17   357.4   12.2      39.475
2014    9       17     7   8    7.18   357.5   12.2      39.538
2014    9       17     7  14    7.19   357.7   12.2      39.602
2014    9       17     7  19    7.19   357.9   12.2      39.667
2014    9       17     7  24    7.20   358.0   12.2      39.732
2014    9       17     7  30    7.21   358.2   12.2      39.799
2014    9       17     7  35    7.21   358.4   12.2      39.867
2014    9       17     7  41    7.22   358.5   12.2      39.935
2014    9       17     7  46    7.23   358.7   12.3      40.003
2014    9       17     7  52    7.24   358.9   12.3      40.071
2014    9       17     7  57    7.24   359.0   12.3      40.138
2014    9       17     8   3    7.25   359.2   12.3      40.204
2014    9       17     8   8    7.26   359.4   12.3      40.269
2014    9       17     8  13    7.26   359.6   12.3      40.333
2014    9       17     8  19    7.27   359.7   12.3      40.396
2014    9       17     8  24    7.27   359.9   12.3      40.458
2014    9       17     8  30    7.28   360.1   12.3      40.519
2014    9       17     8  35    7.29   360.2   12.3      40.579
2014    9       17     8  41    7.29   360.4   12.3      40.638
2014    9       17     8  46    7.30   360.6   12.3      40.696
2014    9       17     8  52    7.30   360.7   12.3      40.753
2014    9       17     8  57    7.31   360.9   12.3      40.810
2014    9       17     9   2    7.32   361.1   12.3      40.865
2014    9       17     9   8    7.32   361.2   12.3      40.920
2014    9       17     9  13    7.33   361.4   12.3      40.974
2014    9       17     9  19    7.33   361.6   12.3      41.027
2014    9       17     9  24    7.34   361.7   12.3      41.079
2014    9       17     9  30    7.34   361.9   12.3      41.130
2014    9       17     9  35    7.35   362.1   12.3      41.181
2014    9       17     9  41    7.35   362.2   12.3      41.231
2014    9       17     9  46    7.36   362.4   12.3      41.281
2014    9       17     9  51    7.36   362.6   12.3      41.330
2014    9       17     9  57    7.37   362.7   12.3      41.378
2014    9       17    10   2    7.38   362.9   12.3      41.425
2014    9       17    10   8    7.38   363.1   12.3      41.472
2014    9       17    10  13    7.39   363.2   12.3      41.519
2014    9       17    10  19    7.39   363.4   12.3      41.564
2014    9       17    10  24    7.40   363.6   12.3      41.610
2014    9       17    10  30    7.40   363.7   12.3      41.654
2014    9       17    10  35    7.41   363.9   12.3      41.699
2014    9       17    10  40    7.41   364.1   12.3      41.743
2014    9       17    10  46    7.42   364.2   12.3      41.786
2014    9       17    10  51    7.42   364.4   12.3      41.829
2014    9       17    10  57    7.42   364.6   12.3      41.872
2014    9       17    11   2    7.43   364.7   12.3      41.914
2014    9       17    11   8    7.43   364.9   12.3      41.957
2014    9       17    11  13    7.44   365.0   12.3      41.999
2014    9       17    11  19    7.44   365.2   12.3      42.040
2014    9       17    11  24    7.45   365.4   12.3      42.082
2014    9       17    11  29    7.45   365.5   12.3      42.123
2014    9       17    11  35    7.46   365.7   12.3      42.165
2014    9       17    11  40    7.46   365.9   12.3      42.206
2014    9       17    11  46    7.47   366.0   12.3      42.247
2014    9       17    11  51    7.47   366.2   12.3      42.289
2014    9       17    11  57    7.48   366.3   12.3      42.330
2014    9       17    12   2    7.48   366.5   12.3      42.371
2014    9       17    12   8    7.49   366.7   12.3      42.413
2014    9       17    12  13    7.49   366.8   12.3      42.455
2014    9       17    12  18    7.50   367.0   12.3      42.496
2014    9       17    12  24    7.50   367.2   12.3      42.539
2014    9       17    12  29    7.51   367.3   12.3      42.581
2014    9       17    12  35    7.51   367.5   12.3      42.624
2014    9       17    12  40    7.52   367.6   12.3      42.667
2014    9       17    12  46    7.52   367.8   12.3      42.710
2014    9       17    12  51    7.53   368.0   12.3      42.754
2014    9       17    12  57    7.53   368.1   12.3      42.799
2014    9       17    13   2    7.54   368.3   12.3      42.844
2014    9       17    13   7    7.54   368.5   12.3      42.891
2014    9       17    13  13    7.55   368.6   12.3      42.938
2014    9       17    13  18    7.55   368.8   12.3      42.986
2014    9       17    13  24    7.56   369.0   12.3      43.035
2014    9       17    13  29    7.57   369.1   12.3      43.085
2014    9       17    13  35    7.57   369.3   12.3      43.136
2014    9       17    13  40    7.58   369.5   12.3      43.190
2014    9       17    13  46    7.58   369.7   12.3      43.246
2014    9       17    13  51    7.59   369.8   12.3      43.304
2014    9       17    13  56    7.60   370.0   12.3      43.364
2014    9       17    14   2    7.60   370.2   12.3      43.426
2014    9       17    14   7    7.61   370.4   12.4      43.490
2014    9       17    14  13    7.62   370.6   12.4      43.557
2014    9       17    14  18    7.62   370.8   12.4      43.626
2014    9       17    14  24    7.63   371.0   12.4      43.697
2014    9       17    14  29    7.64   371.2   12.4      43.768
2014    9       17    14  35    7.65   371.4   12.4      43.841
2014    9       17    14  40    7.65   371.6   12.4      43.914
2014    9       17    14  45    7.66   371.9   12.4      43.990
2014    9       17    14  51    7.67   372.1   12.4      44.069
2014    9       17    14  56    7.67   372.3   12.4      44.151
2014    9       17    15   2    7.68   372.6   12.4      44.235
2014    9       17    15   7    7.69   372.8   12.5      44.321
2014    9       17    15  13    7.70   373.0   12.5      44.408
2014    9       17    15  18    7.70   373.3   12.5      44.497
2014    9       17    15  24    7.71   373.6   12.5      44.588
2014    9       17    15  29    7.72   373.8   12.5      44.678
2014    9       17    15  34    7.72   374.1   12.5      44.768
2014    9       17    15  40    7.73   374.3   12.5      44.856
2014    9       17    15  45    7.73   374.6   12.5      44.944
2014    9       17    15  51    7.74   374.9   12.5      45.030
2014    9       17    15  56    7.75   375.1   12.5      45.114
2014    9       17    16   2    7.75   375.4   12.5      45.197
2014    9       17    16   7    7.76   375.7   12.5      45.279
2014    9       17    16  13    7.76   375.9   12.5      45.358
2014    9       17    16  18    7.77   376.2   12.5      45.435
2014    9       17    16  23    7.77   376.4   12.5      45.509
2014    9       17    16  29    7.77   376.7   12.5      45.581
2014    9       17    16  34    7.78   377.0   12.5      45.651
2014    9       17    16  40    7.78   377.2   12.5      45.719
2014    9       17    16  45    7.79   377.5   12.5      45.784
2014    9       17    16  51    7.79   377.7   12.5      45.847
2014    9       17    16  56    7.79   378.0   12.5      45.908
2014    9       17    17   2    7.80   378.2   12.5      45.968
2014    9       17    17   7    7.80   378.5   12.5      46.025
2014    9       17    17  12    7.81   378.7   12.5      46.081
2014    9       17    17  18    7.81   379.0   12.5      46.135
2014    9       17    17  23    7.81   379.2   12.5      46.188
2014    9       17    17  29    7.82   379.5   12.4      46.239
2014    9       17    17  34    7.82   379.7   12.4      46.289
2014    9       17    17  40    7.82   379.9   12.4      46.337
2014    9       17    17  45    7.82   380.2   12.4      46.385
2014    9       17    17  51    7.83   380.4   12.4      46.431
2014    9       17    17  56    7.83   380.6   12.4      46.476
2014    9       17    18   1    7.83   380.9   12.4      46.521
2014    9       17    18   7    7.84   381.1   12.4      46.565
2014    9       17    18  12    7.84   381.4   12.4      46.608
2014    9       17    18  18    7.84   381.6   12.4      46.650
2014    9       17    18  23    7.85   381.8   12.4      46.692
2014    9       17    18  29    7.85   382.1   12.4      46.734
2014    9       17    18  34    7.85   382.3   12.3      46.776
2014    9       17    18  40    7.86   382.5   12.3      46.817
2014    9       17    18  45    7.86   382.7   12.3      46.858
2014    9       17    18  50    7.86   383.0   12.3      46.900
2014    9       17    18  56    7.87   383.2   12.3      46.941
2014    9       17    19   1    7.87   383.4   12.3      46.981
2014    9       17    19   7    7.87   383.7   12.3      47.023
2014    9       17    19  12    7.87   383.9   12.3      47.064
2014    9       17    19  18    7.88   384.1   12.3      47.105
2014    9       17    19  23    7.88   384.4   12.3      47.146
2014    9       17    19  29    7.88   384.6   12.3      47.188
2014    9       17    19  34    7.89   384.8   12.3      47.230
2014    9       17    19  39    7.89   385.1   12.2      47.274
2014    9       17    19  45    7.90   385.3   12.2      47.318
2014    9       17    19  50    7.90   385.5   12.2      47.364
2014    9       17    19  56    7.90   385.8   12.2      47.411
2014    9       17    20   1    7.91   386.0   12.2      47.458
2014    9       17    20   7    7.91   386.3   12.2      47.508
2014    9       17    20  12    7.92   386.6   12.2      47.560
2014    9       17    20  18    7.92   386.8   12.2      47.614
2014    9       17    20  23    7.92   387.1   12.2      47.669
2014    9       17    20  29    7.93   387.4   12.2      47.726
2014    9       17    20  34    7.93   387.7   12.2      47.784
2014    9       17    20  39    7.94   387.9   12.2      47.843
2014    9       17    20  45    7.94   388.2   12.2      47.902
2014    9       17    20  50    7.95   388.5   12.2      47.960
2014    9       17    20  56    7.95   388.8   12.2      48.018
2014    9       17    21   1    7.96   389.1   12.2      48.075
2014    9       17    21   7    7.96   389.4   12.2      48.132
2014    9       17    21  12    7.96   389.7   12.2      48.189
2014    9       17    21  18    7.97   389.9   12.2      48.245
2014    9       17    21  23    7.97   390.2   12.2      48.301
2014    9       17    21  28    7.98   390.5   12.2      48.358
2014    9       17    21  34    7.98   390.7   12.1      48.416
2014    9       17    21  39    7.99   391.0   12.1      48.475
2014    9       17    21  45    7.99   391.3   12.1      48.534
2014    9       17    21  50    7.99   391.5   12.1      48.594
2014    9       17    21  56    8.00   391.8   12.1      48.655
2014    9       17    22   1    8.00   392.1   12.1      48.719
2014    9       17    22   7    8.01   392.4   12.1      48.786
2014    9       17    22  12    8.01   392.7   12.1      48.855
2014    9       17    22  17    8.02   393.0   12.1      48.926
2014    9       17    22  23    8.02   393.3   12.1      48.999
2014    9       17    22  28    8.02   393.6   12.1      49.074
2014    9       17    22  34    8.03   393.9   12.1      49.151
2014    9       17    22  39    8.03   394.2   12.1      49.229
2014    9       17    22  45    8.04   394.5   12.1      49.307
2014    9       17    22  50    8.04   394.8   12.1      49.384
2014    9       17    22  56    8.04   395.1   12.1      49.459
2014    9       17    23   1    8.05   395.4   12.1      49.533
2014    9       17    23   6    8.05   395.7   12.1      49.605
2014    9       17    23  12    8.05   396.0   12.1      49.676
2014    9       17    23  17    8.05   396.4   12.1      49.746
2014    9       17    23  23    8.06   396.7   12.1      49.814
2014    9       17    23  28    8.06   397.0   12.1      49.880
2014    9       17    23  34    8.06   397.3   12.1      49.945
2014    9       17    23  39    8.07   397.6   12.0      50.008
2014    9       17    23  45    8.07   397.9   12.0      50.070
2014    9       17    23  50    8.07   398.2   12.0      50.130
2014    9       17    23  55    8.07   398.5   12.0      50.189
2014    9       18     0   1    8.07   398.8   12.0      50.246
2014    9       18     0   6    8.08   399.1   12.0      50.299
2014    9       18     0  12    8.08   399.4   12.0      50.351
2014    9       18     0  17    8.08   399.7   12.0      50.401
2014    9       18     0  23    8.08   400.0   11.9      50.450
2014    9       18     0  28    8.08   400.3   11.9      50.498
2014    9       18     0  34    8.08   400.6   11.9      50.545
2014    9       18     0  39    8.09   400.9   11.9      50.592
2014    9       18     0  44    8.09   401.2   11.9      50.637
2014    9       18     0  50    8.09   401.5   11.9      50.681
2014    9       18     0  55    8.09   401.8   11.9      50.724
2014    9       18     1   1    8.09   402.1   11.9      50.767
2014    9       18     1   6    8.09   402.4   11.8      50.810
2014    9       18     1  12    8.09   402.7   11.8      50.853
2014    9       18     1  17    8.10   403.0   11.8      50.894
2014    9       18     1  23    8.10   403.4   11.8      50.934
2014    9       18     1  28    8.10   403.7   11.8      50.973
2014    9       18     1  33    8.10   404.0   11.8      51.012
2014    9       18     1  39    8.10   404.3   11.7      51.052
2014    9       18     1  44    8.10   404.6   11.7      51.093
2014    9       18     1  50    8.10   404.9   11.7      51.134
2014    9       18     1  55    8.10   405.3   11.7      51.174
2014    9       18     2   1    8.10   405.6   11.7      51.213
2014    9       18     2   6    8.10   405.9   11.7      51.251
2014    9       18     2  12    8.10   406.2   11.6      51.288
2014    9       18     2  17    8.10   406.5   11.6      51.324
2014    9       18     2  22    8.10   406.8   11.6      51.358
2014    9       18     2  28    8.10   407.1   11.6      51.392
2014    9       18     2  33    8.10   407.4   11.6      51.424
2014    9       18     2  39    8.10   407.6   11.6      51.457
2014    9       18     2  44    8.10   407.9   11.6      51.493
2014    9       18     2  50    8.11   408.2   11.6      51.532
2014    9       18     2  55    8.11   408.4   11.5      51.572
2014    9       18     3   1    8.11   408.7   11.5      51.614
2014    9       18     3   6    8.11   409.0   11.5      51.659
2014    9       18     3  11    8.11   409.3   11.5      51.705
2014    9       18     3  17    8.11   409.6   11.5      51.755
2014    9       18     3  22    8.11   409.8   11.5      51.807
2014    9       18     3  28    8.11   410.1   11.5      51.862
2014    9       18     3  33    8.12   410.4   11.5      51.920
2014    9       18     3  39    8.12   410.8   11.5      51.980
2014    9       18     3  44    8.12   411.1   11.4      52.045
2014    9       18     3  50    8.12   411.5   11.4      52.113
2014    9       18     3  55    8.12   411.8   11.4      52.184
2014    9       18     4   0    8.12   412.2   11.4      52.257
2014    9       18     4   6    8.13   412.6   11.4      52.331
2014    9       18     4  11    8.13   413.0   11.4      52.405
2014    9       18     4  17    8.13   413.3   11.4      52.479
2014    9       18     4  22    8.13   413.7   11.4      52.554
2014    9       18     4  28    8.13   414.1   11.4      52.625
2014    9       18     4  33    8.13   414.4   11.4      52.693
2014    9       18     4  39    8.13   414.8   11.3      52.759
2014    9       18     4  44    8.13   415.1   11.3      52.822
2014    9       18     4  49    8.13   415.5   11.3      52.884
2014    9       18     4  55    8.13   415.8   11.3      52.945
2014    9       18     5   0    8.13   416.1   11.3      53.004
2014    9       18     5   6    8.13   416.5   11.3      53.063
2014    9       18     5  11    8.13   416.8   11.3      53.121
2014    9       18     5  17    8.13   417.2   11.2      53.178
2014    9       18     5  22    8.13   417.5   11.2      53.235
2014    9       18     5  28    8.13   417.9   11.2      53.291
2014    9       18     5  33    8.13   418.2   11.2      53.347
2014    9       18     5  38    8.13   418.6   11.2      53.402
2014    9       18     5  44    8.13   418.9   11.2      53.456
2014    9       18     5  49    8.13   419.3   11.1      53.509
2014    9       18     5  55    8.13   419.6   11.1      53.562
2014    9       18     6   0    8.13   420.0   11.1      53.614
2014    9       18     6   6    8.13   420.3   11.1      53.665
2014    9       18     6  11    8.13   420.7   11.1      53.715
2014    9       18     6  16    8.12   421.0   11.1      53.764
2014    9       18     6  22    8.12   421.4   11.0      53.812
2014    9       18     6  27    8.12   421.7   11.0      53.859
2014    9       18     6  33    8.12   422.1   11.0      53.906
2014    9       18     6  38    8.12   422.4   11.0      53.952
2014    9       18     6  44    8.12   422.8   11.0      53.998
2014    9       18     6  49    8.12   423.1   11.0      54.043
2014    9       18     6  55    8.12   423.5   10.9      54.087
2014    9       18     7   0    8.12   423.9   10.9      54.131
2014    9       18     7   5    8.12   424.2   10.9      54.175
2014    9       18     7  11    8.12   424.6   10.9      54.218
2014    9       18     7  16    8.11   425.0   10.9      54.260
2014    9       18     7  22    8.11   425.3   10.8      54.302
2014    9       18     7  27    8.11   425.7   10.8      54.343
2014    9       18     7  33    8.11   426.1   10.8      54.384
2014    9       18     7  38    8.11   426.4   10.8      54.425
2014    9       18     7  43    8.11   426.8   10.8      54.464
2014    9       18     7  49    8.11   427.2   10.7      54.504
2014    9       18     7  54    8.11   427.6   10.7      54.543
2014    9       18     8   0    8.10   428.0   10.7      54.580
2014    9       18     8   5    8.10   428.4   10.7      54.616
2014    9       18     8  11    8.10   428.8   10.7      54.651
2014    9       18     8  16    8.10   429.1   10.6      54.683
2014    9       18     8  22    8.09   429.5   10.6      54.713
2014    9       18     8  27    8.09   429.9   10.6      54.739
2014    9       18     8  32    8.09   430.3   10.6      54.763
2014    9       18     8  38    8.08   430.7   10.5      54.784
2014    9       18     8  43    8.08   431.0   10.5      54.803
2014    9       18     8  49    8.08   431.4   10.5      54.818
2014    9       18     8  54    8.07   431.8   10.4      54.832
2014    9       18     9   0    8.07   432.2   10.4      54.842
2014    9       18     9   5    8.06   432.5   10.4      54.849
2014    9       18     9  11    8.06   432.8   10.4      54.852
2014    9       18     9  16    8.05   433.2   10.3      54.853
2014    9       18     9  21    8.05   433.5   10.3      54.854
2014    9       18     9  27    8.04   433.8   10.3      54.854
2014    9       18     9  32    8.04   434.0   10.3      54.854
2014    9       18     9  38    8.03   434.3   10.2      54.855
2014    9       18     9  43    8.03   434.6   10.2      54.858
2014    9       18     9  49    8.02   434.9   10.2      54.864
2014    9       18     9  54    8.02   435.1   10.2      54.874
2014    9       18    10   0    8.02   435.4   10.1      54.886
2014    9       18    10   5    8.01   435.7   10.1      54.900
2014    9       18    10  10    8.01   435.9   10.1      54.919
2014    9       18    10  16    8.01   436.2   10.1      54.941
2014    9       18    10  21    8.00   436.5   10.1      54.966
2014    9       18    10  27    8.00   436.7   10.1      54.994
2014    9       18    10  32    8.00   437.0   10.0      55.026
2014    9       18    10  38    7.99   437.3   10.0      55.059
2014    9       18    10  43    7.99   437.6   10.0      55.098
2014    9       18    10  49    7.99   438.0   10.0      55.141
2014    9       18    10  54    7.98   438.3   10.0      55.189
2014    9       18    10  59    7.98   438.7   10.0      55.240
2014    9       18    11   5    7.98   439.1    9.9      55.294
2014    9       18    11  10    7.97   439.4    9.9      55.349
2014    9       18    11  16    7.97   439.8    9.9      55.405
2014    9       18    11  21    7.97   440.2    9.9      55.462
2014    9       18    11  27    7.96   440.6    9.9      55.518
2014    9       18    11  32    7.96   440.9    9.9      55.570
2014    9       18    11  38    7.96   441.3    9.8      55.618
2014    9       18    11  43    7.95   441.6    9.8      55.664
2014    9       18    11  48    7.95   442.0    9.8      55.708
2014    9       18    11  54    7.94   442.3    9.8      55.749
2014    9       18    11  59    7.94   442.7    9.8      55.787
2014    9       18    12   5    7.93   443.0    9.7      55.822
2014    9       18    12  10    7.93   443.4    9.7      55.856
2014    9       18    12  16    7.92   443.7    9.7      55.888
2014    9       18    12  21    7.92   444.1    9.7      55.918
2014    9       18    12  27    7.91   444.4    9.7      55.946
2014    9       18    12  32    7.91   444.7    9.6      55.974
2014    9       18    12  37    7.90   445.1    9.6      56.001
2014    9       18    12  43    7.90   445.4    9.6      56.028
2014    9       18    12  48    7.89   445.8    9.6      56.054
2014    9       18    12  54    7.89   446.1    9.6      56.079
2014    9       18    12  59    7.88   446.5    9.5      56.104
2014    9       18    13   5    7.87   446.8    9.5      56.128
2014    9       18    13  10    7.87   447.2    9.5      56.152
2014    9       18    13  16    7.86   447.5    9.5      56.175
2014    9       18    13  21    7.86   447.9    9.4      56.196
2014    9       18    13  26    7.85   448.2    9.4      56.216
2014    9       18    13  32    7.84   448.6    9.4      56.235
2014    9       18    13  37    7.84   448.9    9.4      56.254
2014    9       18    13  43    7.83   449.3    9.4      56.272
2014    9       18    13  48    7.83   449.6    9.3      56.289
2014    9       18    13  54    7.82   449.9    9.3      56.306
2014    9       18    13  59    7.82   450.3    9.3      56.323
2014    9       18    14   5    7.81   450.6    9.3      56.341
2014    9       18    14  10    7.80   451.0    9.3      56.359
2014    9       18    14  15    7.80   451.3    9.2      56.378
2014    9       18    14  21    7.79   451.7    9.2      56.397
2014    9       18    14  26    7.79   452.0    9.2      56.417
2014    9       18    14  32    7.78   452.4    9.2      56.437
2014    9       18    14  37    7.77   452.7    9.2      56.457
2014    9       18    14  43    7.77   453.1    9.1      56.478
2014    9       18    14  48    7.76   453.4    9.1      56.498
2014    9       18    14  54    7.76   453.8    9.1      56.518
2014    9       18    14  59    7.75   454.2    9.1      56.538
2014    9       18    15   4    7.74   454.6    9.0      56.558
2014    9       18    15  10    7.74   454.9    9.0      56.576
2014    9       18    15  15    7.73   455.3    9.0      56.592
2014    9       18    15  21    7.72   455.7    9.0      56.605
2014    9       18    15  26    7.72   456.0    9.0      56.615
2014    9       18    15  32    7.71   456.4    8.9      56.621
2014    9       18    15  37    7.70   456.7    8.9      56.624
2014    9       18    15  43    7.69   457.1    8.9      56.624
2014    9       18    15  48    7.69   457.4    8.9      56.623
2014    9       18    15  53    7.68   457.7    8.8      56.616
2014    9       18    15  59    7.67   458.1    8.8      56.606
2014    9       18    16   4    7.66   458.4    8.8      56.592
2014    9       18    16  10    7.65   458.7    8.7      56.576
2014    9       18    16  15    7.64   459.0    8.7      56.558
2014    9       18    16  21    7.63   459.3    8.7      56.538
2014    9       18    16  26    7.62   459.5    8.7      56.514
2014    9       18    16  32    7.62   459.8    8.6      56.490
2014    9       18    16  37    7.61   460.1    8.6      56.468
2014    9       18    16  42    7.60   460.3    8.6      56.449
2014    9       18    16  48    7.59   460.6    8.6      56.430
2014    9       18    16  53    7.58   460.9    8.5      56.413
2014    9       18    16  59    7.58   461.1    8.5      56.398
2014    9       18    17   4    7.57   461.4    8.5      56.385
2014    9       18    17  10    7.56   461.6    8.5      56.373
2014    9       18    17  15    7.55   461.9    8.5      56.362
2014    9       18    17  21    7.55   462.2    8.4      56.353
2014    9       18    17  26    7.54   462.4    8.4      56.345
2014    9       18    17  31    7.53   462.7    8.4      56.338
2014    9       18    17  37    7.53   463.0    8.4      56.332
2014    9       18    17  42    7.52   463.2    8.4      56.327
2014    9       18    17  48    7.51   463.5    8.3      56.323
2014    9       18    17  53    7.50   463.8    8.3      56.319
2014    9       18    17  59    7.50   464.0    8.3      56.316
2014    9       18    18   4    7.49   464.3    8.3      56.313
2014    9       18    18  10    7.48   464.6    8.3      56.310
2014    9       18    18  15    7.48   464.8    8.2      56.307
2014    9       18    18  21    7.47   465.1    8.2      56.304
2014    9       18    18  26    7.46   465.4    8.2      56.300
2014    9       18    18  31    7.45   465.7    8.2      56.296
2014    9       18    18  37    7.45   466.0    8.2      56.292
2014    9       18    18  42    7.44   466.3    8.1      56.286
2014    9       18    18  48    7.43   466.6    8.1      56.280
2014    9       18    18  53    7.42   466.8    8.1      56.272
2014    9       18    18  59    7.41   467.1    8.1      56.264
2014    9       18    19   4    7.41   467.4    8.1      56.254
2014    9       18    19   9    7.40   467.7    8.0      56.242
2014    9       18    19  15    7.39   468.0    8.0      56.228
2014    9       18    19  20    7.38   468.3    8.0      56.214
2014    9       18    19  26    7.37   468.6    8.0      56.197
2014    9       18    19  31    7.36   468.9    7.9      56.178
2014    9       18    19  37    7.35   469.2    7.9      56.155
2014    9       18    19  42    7.34   469.5    7.9      56.130
2014    9       18    19  48    7.34   469.8    7.9      56.102
2014    9       18    19  53    7.33   470.1    7.9      56.072
2014    9       18    19  58    7.32   470.4    7.8      56.039
2014    9       18    20   4    7.31   470.7    7.8      56.003
2014    9       18    20   9    7.30   470.9    7.8      55.965
2014    9       18    20  15    7.29   471.2    7.8      55.927
2014    9       18    20  20    7.28   471.5    7.7      55.890
2014    9       18    20  26    7.27   471.7    7.7      55.853
2014    9       18    20  31    7.26   472.0    7.7      55.816
2014    9       18    20  37    7.25   472.2    7.7      55.777
2014    9       18    20  42    7.24   472.5    7.6      55.739
2014    9       18    20  47    7.23   472.7    7.6      55.700
2014    9       18    20  53    7.22   472.9    7.6      55.661
2014    9       18    20  58    7.21   473.2    7.6      55.622
2014    9       18    21   4    7.20   473.4    7.6      55.583
2014    9       18    21   9    7.19   473.6    7.5      55.544
2014    9       18    21  15    7.18   473.8    7.5      55.506
2014    9       18    21  20    7.17   474.0    7.5      55.469
2014    9       18    21  26    7.16   474.2    7.5      55.434
2014    9       18    21  31    7.15   474.4    7.5      55.400
2014    9       18    21  36    7.15   474.5    7.4      55.366
2014    9       18    21  42    7.14   474.7    7.4      55.334
2014    9       18    21  47    7.13   474.9    7.4      55.303
2014    9       18    21  53    7.12   475.1    7.4      55.273
2014    9       18    21  58    7.11   475.3    7.4      55.243
2014    9       18    22   4    7.10   475.5    7.4      55.215
2014    9       18    22   9    7.09   475.7    7.3      55.187
2014    9       18    22  15    7.09   475.9    7.3      55.160
2014    9       18    22  20    7.08   476.1    7.3      55.133
2014    9       18    22  25    7.07   476.3    7.3      55.107
2014    9       18    22  31    7.06   476.5    7.3      55.080
2014    9       18    22  36    7.05   476.7    7.3      55.054
2014    9       18    22  42    7.04   476.9    7.2      55.027
2014    9       18    22  47    7.03   477.1    7.2      55.000
2014    9       18    22  53    7.03   477.3    7.2      54.973
2014    9       18    22  58    7.02   477.5    7.2      54.946
2014    9       18    23   4    7.01   477.7    7.2      54.917
2014    9       18    23   9    7.00   477.9    7.2      54.888
2014    9       18    23  14    6.99   478.1    7.1      54.857
2014    9       18    23  20    6.98   478.2    7.1      54.825
2014    9       18    23  25    6.97   478.4    7.1      54.792
2014    9       18    23  31    6.96   478.6    7.1      54.758
2014    9       18    23  36    6.96   478.8    7.1      54.722
2014    9       18    23  42    6.95   478.9    7.1      54.685
2014    9       18    23  47    6.94   479.1    7.1      54.649
2014    9       18    23  53    6.93   479.2    7.0      54.612
2014    9       18    23  58    6.92   479.4    7.0      54.576
2014    9       19     0   3    6.91   479.5    7.0      54.539
2014    9       19     0   9    6.90   479.7    7.0      54.502
2014    9       19     0  14    6.89   479.8    7.0      54.465
2014    9       19     0  20    6.89   480.0    7.0      54.428
2014    9       19     0  25    6.88   480.1    6.9      54.390
2014    9       19     0  31    6.87   480.3    6.9      54.353
2014    9       19     0  36    6.86   480.4    6.9      54.316
2014    9       19     0  42    6.85   480.5    6.9      54.278
2014    9       19     0  47    6.84   480.7    6.9      54.241
2014    9       19     0  52    6.83   480.8    6.9      54.204
2014    9       19     0  58    6.83   481.0    6.9      54.167
2014    9       19     1   3    6.82   481.1    6.8      54.130
2014    9       19     1   9    6.81   481.2    6.8      54.093
2014    9       19     1  14    6.80   481.3    6.8      54.056
2014    9       19     1  20    6.79   481.5    6.8      54.018
2014    9       19     1  25    6.78   481.6    6.8      53.980
2014    9       19     1  31    6.78   481.7    6.8      53.941
2014    9       19     1  36    6.77   481.9    6.8      53.902
2014    9       19     1  41    6.76   482.0    6.8      53.861
2014    9       19     1  47    6.75   482.1    6.7      53.820
2014    9       19     1  52    6.74   482.2    6.7      53.777
2014    9       19     1  58    6.73   482.3    6.7      53.733
2014    9       19     2   3    6.72   482.5    6.7      53.688
2014    9       19     2   9    6.72   482.6    6.7      53.642
2014    9       19     2  14    6.71   482.7    6.7      53.595
2014    9       19     2  20    6.70   482.8    6.7      53.547
2014    9       19     2  25    6.69   483.0    6.6      53.496
2014    9       19     2  30    6.68   483.1    6.6      53.445
2014    9       19     2  36    6.67   483.2    6.6      53.392
2014    9       19     2  41    6.66   483.3    6.6      53.338
2014    9       19     2  47    6.65   483.4    6.6      53.283
2014    9       19     2  52    6.64   483.6    6.6      53.227
2014    9       19     2  58    6.64   483.7    6.6      53.170
2014    9       19     3   3    6.63   483.8    6.5      53.112
2014    9       19     3   9    6.62   483.9    6.5      53.054
2014    9       19     3  14    6.61   484.0    6.5      52.996
2014    9       19     3  19    6.60   484.1    6.5      52.939
2014    9       19     3  25    6.59   484.2    6.5      52.883
2014    9       19     3  30    6.58   484.3    6.5      52.826
2014    9       19     3  36    6.57   484.4    6.5      52.769
2014    9       19     3  41    6.57   484.5    6.4      52.713
2014    9       19     3  47    6.56   484.6    6.4      52.657
2014    9       19     3  52    6.55   484.6    6.4      52.601
2014    9       19     3  58    6.54   484.7    6.4      52.546
2014    9       19     4   3    6.53   484.8    6.4      52.491
2014    9       19     4   8    6.52   484.9    6.4      52.436
2014    9       19     4  14    6.51   485.0    6.4      52.381
2014    9       19     4  19    6.51   485.0    6.4      52.326
2014    9       19     4  25    6.50   485.1    6.3      52.272
2014    9       19     4  30    6.49   485.2    6.3      52.218
2014    9       19     4  36    6.48   485.3    6.3      52.164
2014    9       19     4  41    6.47   485.4    6.3      52.110
2014    9       19     4  47    6.47   485.5    6.3      52.056
2014    9       19     4  52    6.46   485.6    6.3      52.002
2014    9       19     4  57    6.45   485.6    6.3      51.949
2014    9       19     5   3    6.44   485.7    6.3      51.895
2014    9       19     5   8    6.43   485.8    6.2      51.841
2014    9       19     5  14    6.43   485.9    6.2      51.786
2014    9       19     5  19    6.42   486.0    6.2      51.732
2014    9       19     5  25    6.41   486.1    6.2      51.677
2014    9       19     5  30    6.40   486.1    6.2      51.621
2014    9       19     5  35    6.39   486.2    6.2      51.566
2014    9       19     5  41    6.39   486.3    6.2      51.511
2014    9       19     5  46    6.38   486.3    6.2      51.455
2014    9       19     5  52    6.37   486.4    6.1      51.399
2014    9       19     5  57    6.36   486.5    6.1      51.344
2014    9       19     6   3    6.35   486.5    6.1      51.288
2014    9       19     6   8    6.35   486.6    6.1      51.232
2014    9       19     6  14    6.34   486.7    6.1      51.177
2014    9       19     6  19    6.33   486.7    6.1      51.122
2014    9       19     6  24    6.32   486.8    6.1      51.067
2014    9       19     6  30    6.31   486.8    6.1      51.012
2014    9       19     6  35    6.31   486.9    6.1      50.958
2014    9       19     6  41    6.30   486.9    6.0      50.903
2014    9       19     6  46    6.29   487.0    6.0      50.849
2014    9       19     6  52    6.28   487.0    6.0      50.796
2014    9       19     6  57    6.28   487.0    6.0      50.742
2014    9       19     7   3    6.27   487.1    6.0      50.689
2014    9       19     7   8    6.26   487.1    6.0      50.636
2014    9       19     7  14    6.25   487.2    6.0      50.584
2014    9       19     7  19    6.25   487.2    6.0      50.531
2014    9       19     7  24    6.24   487.2    6.0      50.479
2014    9       19     7  30    6.23   487.3    6.0      50.428
2014    9       19     7  35    6.22   487.3    6.0      50.376
2014    9       19     7  41    6.22   487.3    5.9      50.325
2014    9       19     7  46    6.21   487.4    5.9      50.274
2014    9       19     7  52    6.20   487.4    5.9      50.223
2014    9       19     7  57    6.19   487.4    5.9      50.172
2014    9       19     8   3    6.19   487.4    5.9      50.122
2014    9       19     8   8    6.18   487.4    5.9      50.072
2014    9       19     8  13    6.17   487.5    5.9      50.022
2014    9       19     8  19    6.16   487.5    5.9      49.972
2014    9       19     8  24    6.16   487.5    5.9      49.923
2014    9       19     8  30    6.15   487.5    5.9      49.874
2014    9       19     8  35    6.14   487.5    5.9      49.824
2014    9       19     8  41    6.14   487.4    5.9      49.775
2014    9       19     8  46    6.13   487.4    5.8      49.725
2014    9       19     8  52    6.12   487.4    5.8      49.676
2014    9       19     8  57    6.11   487.4    5.8      49.627
2014    9       19     9   2    6.11   487.4    5.8      49.577
2014    9       19     9   8    6.10   487.4    5.8      49.528
2014    9       19     9  13    6.09   487.4    5.8      49.478
2014    9       19     9  19    6.09   487.3    5.8      49.429
2014    9       19     9  24    6.08   487.3    5.8      49.380
2014    9       19     9  30    6.07   487.3    5.8      49.330
2014    9       19     9  35    6.06   487.3    5.8      49.281
2014    9       19     9  41    6.06   487.2    5.8      49.231
2014    9       19     9  46    6.05   487.2    5.8      49.181
2014    9       19     9  51    6.04   487.2    5.8      49.132
2014    9       19     9  57    6.04   487.2    5.8      49.082
2014    9       19    10   2    6.03   487.1    5.8      49.033
2014    9       19    10   8    6.02   487.1    5.8      48.983
2014    9       19    10  13    6.02   487.1    5.8      48.934
2014    9       19    10  19    6.01   487.1    5.7      48.883
2014    9       19    10  24    6.00   487.0    5.7      48.833
2014    9       19    10  30    5.99   487.0    5.7      48.783
2014    9       19    10  35    5.99   487.0    5.7      48.732
2014    9       19    10  40    5.98   487.0    5.7      48.681
2014    9       19    10  46    5.97   486.9    5.7      48.630
2014    9       19    10  51    5.97   486.9    5.7      48.578
2014    9       19    10  57    5.96   486.9    5.7      48.526
2014    9       19    11   2    5.95   486.8    5.7      48.473
2014    9       19    11   8    5.95   486.8    5.7      48.420
2014    9       19    11  13    5.94   486.8    5.7      48.366
2014    9       19    11  19    5.93   486.7    5.7      48.313
2014    9       19    11  24    5.93   486.7    5.7      48.258
2014    9       19    11  29    5.92   486.7    5.7      48.204
2014    9       19    11  35    5.91   486.6    5.7      48.149
2014    9       19    11  40    5.91   486.6    5.7      48.094
2014    9       19    11  46    5.90   486.6    5.6      48.039
2014    9       19    11  51    5.89   486.5    5.6      47.983
2014    9       19    11  57    5.89   486.5    5.6      47.928
2014    9       19    12   2    5.88   486.5    5.6      47.872
2014    9       19    12   8    5.87   486.4    5.6      47.816
2014    9       19    12  13    5.87   486.4    5.6      47.761
2014    9       19    12  18    5.86   486.3    5.6      47.705
2014    9       19    12  24    5.85   486.3    5.6      47.649
2014    9       19    12  29    5.85   486.3    5.6      47.593
2014    9       19    12  35    5.84   486.2    5.6      47.537
2014    9       19    12  40    5.83   486.2    5.6      47.480
2014    9       19    12  46    5.83   486.1    5.6      47.424
2014    9       19    12  51    5.82   486.1    5.6      47.368
2014    9       19    12  57    5.82   486.0    5.6      47.312
2014    9       19    13   2    5.81   486.0    5.6      47.256
2014    9       19    13   7    5.80   485.9    5.5      47.200
2014    9       19    13  13    5.80   485.9    5.5      47.143
2014    9       19    13  18    5.79   485.8    5.5      47.087
2014    9       19    13  24    5.79   485.7    5.5      47.031
2014    9       19    13  29    5.78   485.7    5.5      46.975
2014    9       19    13  35    5.77   485.6    5.5      46.919
2014    9       19    13  40    5.77   485.6    5.5      46.863
2014    9       19    13  46    5.76   485.5    5.5      46.807
2014    9       19    13  51    5.76   485.4    5.5      46.751
2014    9       19    13  56    5.75   485.4    5.5      46.696
2014    9       19    14   2    5.74   485.3    5.5      46.640
2014    9       19    14   7    5.74   485.2    5.5      46.585
2014    9       19    14  13    5.73   485.2    5.5      46.530
2014    9       19    14  18    5.73   485.1    5.5      46.475
2014    9       19    14  24    5.72   485.0    5.5      46.420
2014    9       19    14  29    5.71   485.0    5.5      46.366
2014    9       19    14  35    5.71   484.9    5.5      46.311
2014    9       19    14  40    5.70   484.8    5.5      46.257
2014    9       19    14  45    5.70   484.7    5.4      46.203
2014    9       19    14  51    5.69   484.7    5.4      46.149
2014    9       19    14  56    5.69   484.6    5.4      46.096
2014    9       19    15   2    5.68   484.5    5.4      46.043
2014    9       19    15   7    5.68   484.4    5.4      45.990
2014    9       19    15  13    5.67   484.4    5.4      45.937
2014    9       19    15  18    5.66   484.3    5.4      45.884
2014    9       19    15  24    5.66   484.2    5.4      45.832
2014    9       19    15  29    5.65   484.1    5.4      45.780
2014    9       19    15  35    5.65   484.0    5.4      45.728
2014    9       19    15  40    5.64   483.9    5.4      45.676
2014    9       19    15  45    5.64   483.8    5.4      45.624
2014    9       19    15  51    5.63   483.7    5.4      45.572
2014    9       19    15  56    5.63   483.6    5.4      45.520
2014    9       19    16   2    5.62   483.6    5.4      45.468
2014    9       19    16   7    5.62   483.5    5.4      45.416
2014    9       19    16  13    5.61   483.4    5.4      45.364
2014    9       19    16  18    5.61   483.3    5.4      45.312
2014    9       19    16  24    5.60   483.2    5.4      45.260
2014    9       19    16  29    5.60   483.1    5.4      45.209
2014    9       19    16  34    5.59   483.0    5.4      45.157
2014    9       19    16  40    5.59   482.9    5.4      45.105
2014    9       19    16  45    5.58   482.8    5.4      45.053
2014    9       19    16  51    5.58   482.6    5.4      45.002
2014    9       19    16  56    5.57   482.5    5.4      44.950
2014    9       19    17   2    5.57   482.4    5.4      44.899
2014    9       19    17   7    5.56   482.3    5.3      44.848
2014    9       19    17  13    5.56   482.2    5.3      44.797
2014    9       19    17  18    5.55   482.1    5.3      44.746
2014    9       19    17  23    5.55   482.0    5.3      44.696
2014    9       19    17  29    5.54   481.9    5.3      44.645
2014    9       19    17  34    5.54   481.8    5.3      44.595
2014    9       19    17  40    5.53   481.7    5.3      44.545
2014    9       19    17  45    5.53   481.6    5.3      44.495
2014    9       19    17  51    5.52   481.4    5.3      44.445
2014    9       19    17  56    5.52   481.3    5.3      44.395
2014    9       19    18   2    5.51   481.2    5.3      44.345
2014    9       19    18   7    5.51   481.1    5.3      44.294
2014    9       19    18  12    5.50   481.0    5.3      44.243
2014    9       19    18  18    5.50   480.9    5.3      44.192
2014    9       19    18  23    5.50   480.8    5.3      44.140
2014    9       19    18  29    5.49   480.6    5.3      44.089
2014    9       19    18  34    5.49   480.5    5.3      44.037
2014    9       19    18  40    5.48   480.4    5.3      43.985
2014    9       19    18  45    5.48   480.3    5.3      43.933
2014    9       19    18  51    5.47   480.2    5.3      43.881
2014    9       19    18  56    5.47   480.1    5.3      43.829
2014    9       19    19   1    5.46   479.9    5.3      43.776
2014    9       19    19   7    5.46   479.8    5.3      43.724
2014    9       19    19  12    5.45   479.7    5.3      43.671
2014    9       19    19  18    5.45   479.6    5.3      43.619
2014    9       19    19  23    5.44   479.4    5.3      43.566
2014    9       19    19  29    5.44   479.3    5.3      43.513
2014    9       19    19  34    5.44   479.2    5.3      43.460
2014    9       19    19  39    5.43   479.1    5.3      43.407
2014    9       19    19  45    5.43   478.9    5.3      43.354
2014    9       19    19  50    5.42   478.8    5.3      43.301
2014    9       19    19  56    5.42   478.7    5.3      43.248
2014    9       19    20   1    5.41   478.5    5.3      43.196
2014    9       19    20   7    5.41   478.4    5.3      43.143
2014    9       19    20  12    5.40   478.3    5.3      43.090
2014    9       19    20  18    5.40   478.2    5.3      43.037
2014    9       19    20  23    5.40   478.0    5.3      42.984
2014    9       19    20  28    5.39   477.9    5.3      42.931
2014    9       19    20  34    5.39   477.7    5.2      42.878
2014    9       19    20  39    5.38   477.6    5.2      42.825
2014    9       19    20  45    5.38   477.5    5.2      42.773
2014    9       19    20  50    5.37   477.3    5.2      42.720
2014    9       19    20  56    5.37   477.2    5.2      42.667
2014    9       19    21   1    5.37   477.1    5.2      42.614
2014    9       19    21   7    5.36   476.9    5.2      42.562
2014    9       19    21  12    5.36   476.8    5.2      42.509
2014    9       19    21  18    5.35   476.6    5.2      42.456
2014    9       19    21  23    5.35   476.5    5.2      42.404
2014    9       19    21  28    5.35   476.3    5.2      42.351
2014    9       19    21  34    5.34   476.2    5.2      42.298
2014    9       19    21  39    5.34   476.0    5.2      42.246
2014    9       19    21  45    5.33   475.9    5.2      42.193
2014    9       19    21  50    5.33   475.7    5.2      42.141
2014    9       19    21  56    5.33   475.6    5.2      42.088
2014    9       19    22   1    5.32   475.4    5.2      42.035
2014    9       19    22   7    5.32   475.3    5.2      41.982
2014    9       19    22  12    5.32   475.1    5.2      41.929
2014    9       19    22  17    5.31   475.0    5.2      41.877
2014    9       19    22  23    5.31   474.8    5.2      41.824
2014    9       19    22  28    5.31   474.7    5.2      41.771
2014    9       19    22  34    5.30   474.5    5.2      41.718
2014    9       19    22  39    5.30   474.4    5.2      41.665
2014    9       19    22  45    5.30   474.2    5.2      41.613
2014    9       19    22  50    5.29   474.1    5.2      41.560
2014    9       19    22  56    5.29   473.9    5.2      41.508
2014    9       19    23   1    5.28   473.8    5.2      41.456
2014    9       19    23   6    5.28   473.6    5.2      41.404
2014    9       19    23  12    5.28   473.4    5.2      41.352
2014    9       19    23  17    5.28   473.3    5.2      41.301
2014    9       19    23  23    5.27   473.1    5.2      41.249
2014    9       19    23  28    5.27   473.0    5.2      41.198
2014    9       19    23  34    5.27   472.8    5.2      41.146
2014    9       19    23  39    5.26   472.7    5.2      41.095
2014    9       19    23  45    5.26   472.5    5.2      41.044
2014    9       19    23  50    5.26   472.3    5.2      40.993
2014    9       19    23  55    5.25   472.2    5.2      40.942
2014    9       20     0   1    5.25   472.0    5.2      40.891
2014    9       20     0   6    5.25   471.9    5.2      40.840
2014    9       20     0  12    5.24   471.7    5.2      40.789
2014    9       20     0  17    5.24   471.5    5.2      40.738
2014    9       20     0  23    5.24   471.4    5.2      40.688
2014    9       20     0  28    5.24   471.2    5.2      40.636
2014    9       20     0  34    5.23   471.1    5.2      40.586
2014    9       20     0  39    5.23   470.9    5.2      40.535
2014    9       20     0  44    5.23   470.8    5.2      40.483
2014    9       20     0  50    5.22   470.6    5.2      40.432
2014    9       20     0  55    5.22   470.4    5.2      40.381
2014    9       20     1   1    5.22   470.3    5.2      40.330
2014    9       20     1   6    5.21   470.1    5.2      40.279
2014    9       20     1  12    5.21   470.0    5.2      40.228
2014    9       20     1  17    5.21   469.8    5.2      40.176
2014    9       20     1  23    5.21   469.6    5.2      40.125
2014    9       20     1  28    5.20   469.5    5.2      40.074
2014    9       20     1  33    5.20   469.3    5.2      40.023
2014    9       20     1  39    5.20   469.1    5.2      39.971
2014    9       20     1  44    5.19   469.0    5.2      39.920
2014    9       20     1  50    5.19   468.8    5.2      39.869
2014    9       20     1  55    5.19   468.7    5.2      39.817
2014    9       20     2   1    5.19   468.5    5.2      39.766
2014    9       20     2   6    5.18   468.3    5.2      39.715
2014    9       20     2  12    5.18   468.2    5.2      39.664
2014    9       20     2  17    5.18   468.0    5.2      39.612
2014    9       20     2  22    5.17   467.8    5.2      39.561
2014    9       20     2  28    5.17   467.7    5.2      39.510
2014    9       20     2  33    5.17   467.5    5.2      39.459
2014    9       20     2  39    5.17   467.3    5.2      39.408
2014    9       20     2  44    5.16   467.2    5.2      39.357
2014    9       20     2  50    5.16   467.0    5.2      39.306
2014    9       20     2  55    5.16   466.8    5.2      39.255
2014    9       20     3   1    5.16   466.7    5.2      39.204
2014    9       20     3   6    5.15   466.5    5.2      39.153
2014    9       20     3  11    5.15   466.3    5.2      39.102
2014    9       20     3  17    5.15   466.1    5.2      39.052
2014    9       20     3  22    5.15   466.0    5.2      39.001
2014    9       20     3  28    5.14   465.8    5.2      38.951
2014    9       20     3  33    5.14   465.6    5.2      38.900
2014    9       20     3  39    5.14   465.4    5.2      38.850
2014    9       20     3  44    5.14   465.3    5.2      38.800
2014    9       20     3  49    5.13   465.1    5.2      38.750
2014    9       20     3  55    5.13   464.9    5.2      38.700
2014    9       20     4   0    5.13   464.7    5.2      38.650
2014    9       20     4   6    5.13   464.6    5.1      38.601
2014    9       20     4  11    5.12   464.4    5.1      38.551
2014    9       20     4  17    5.12   464.2    5.1      38.502
2014    9       20     4  22    5.12   464.0    5.1      38.453
2014    9       20     4  28    5.12   463.8    5.1      38.404
2014    9       20     4  33    5.11   463.7    5.1      38.355
2014    9       20     4  39    5.11   463.5    5.1      38.307
2014    9       20     4  44    5.11   463.3    5.1      38.258
2014    9       20     4  49    5.11   463.1    5.1      38.210
2014    9       20     4  55    5.10   462.9    5.1      38.161
2014    9       20     5   0    5.10   462.7    5.1      38.113
2014    9       20     5   6    5.10   462.5    5.1      38.065
2014    9       20     5  11    5.10   462.4    5.1      38.017
2014    9       20     5  17    5.10   462.2    5.1      37.970
2014    9       20     5  22    5.09   462.0    5.1      37.922
2014    9       20     5  28    5.09   461.8    5.1      37.874
2014    9       20     5  33    5.09   461.6    5.1      37.827
2014    9       20     5  38    5.09   461.4    5.1      37.779
2014    9       20     5  44    5.09   461.2    5.1      37.732
2014    9       20     5  49    5.08   461.0    5.1      37.685
2014    9       20     5  55    5.08   460.8    5.1      37.638
2014    9       20     6   0    5.08   460.7    5.1      37.590
2014    9       20     6   6    5.08   460.5    5.1      37.544
2014    9       20     6  11    5.08   460.3    5.1      37.497
2014    9       20     6  17    5.07   460.1    5.1      37.450
2014    9       20     6  22    5.07   459.9    5.1      37.404
2014    9       20     6  27    5.07   459.7    5.2      37.358
2014    9       20     6  33    5.07   459.5    5.2      37.312
2014    9       20     6  38    5.07   459.3    5.2      37.267
2014    9       20     6  44    5.06   459.1    5.2      37.221
2014    9       20     6  49    5.06   458.9    5.2      37.176
2014    9       20     6  55    5.06   458.7    5.2      37.131
2014    9       20     7   0    5.06   458.5    5.2      37.086
2014    9       20     7   6    5.06   458.3    5.2      37.042
2014    9       20     7  11    5.06   458.1    5.2      36.998
2014    9       20     7  16    5.05   457.9    5.2      36.953
2014    9       20     7  22    5.05   457.7    5.2      36.910
2014    9       20     7  27    5.05   457.5    5.2      36.866
2014    9       20     7  33    5.05   457.3    5.2      36.823
2014    9       20     7  38    5.05   457.1    5.2      36.780
2014    9       20     7  44    5.05   456.9    5.2      36.736
2014    9       20     7  49    5.05   456.7    5.2      36.694
2014    9       20     7  55    5.04   456.5    5.2      36.651
2014    9       20     8   0    5.04   456.3    5.2      36.608
2014    9       20     8   5    5.04   456.1    5.2      36.566
2014    9       20     8  11    5.04   455.9    5.2      36.524
2014    9       20     8  16    5.04   455.7    5.2      36.482
2014    9       20     8  22    5.04   455.5    5.2      36.440
2014    9       20     8  27    5.04   455.3    5.2      36.397
2014    9       20     8  33    5.04   455.1    5.2      36.356
2014    9       20     8  38    5.03   454.9    5.2      36.314
2014    9       20     8  44    5.03   454.7    5.2      36.272
2014    9       20     8  49    5.03   454.5    5.2      36.230
2014    9       20     8  54    5.03   454.3    5.2      36.188
2014    9       20     9   0    5.03   454.1    5.2      36.147
2014    9       20     9   5    5.03   453.9    5.2      36.105
2014    9       20     9  11    5.03   453.7    5.2      36.063
2014    9       20     9  16    5.03   453.5    5.2      36.021
2014    9       20     9  22    5.02   453.3    5.2      35.979
2014    9       20     9  27    5.02   453.1    5.2      35.937
2014    9       20     9  32    5.02   452.9    5.2      35.895
2014    9       20     9  38    5.02   452.7    5.2      35.853
2014    9       20     9  43    5.02   452.5    5.2      35.810
2014    9       20     9  49    5.02   452.3    5.2      35.767
2014    9       20     9  54    5.02   452.1    5.2      35.724
2014    9       20    10   0    5.02   451.9    5.2      35.681
2014    9       20    10   5    5.01   451.7    5.2      35.638
2014    9       20    10  11    5.01   451.5    5.2      35.594
2014    9       20    10  16    5.01   451.3    5.2      35.550
2014    9       20    10  21    5.01   451.1    5.2      35.506
2014    9       20    10  27    5.01   450.9    5.2      35.462
2014    9       20    10  32    5.01   450.6    5.2      35.417
2014    9       20    10  38    5.01   450.4    5.2      35.373
2014    9       20    10  43    5.01   450.2    5.2      35.328
2014    9       20    10  49    5.00   450.0    5.2      35.282
2014    9       20    10  54    5.00   449.8    5.2      35.237
2014    9       20    11   0    5.00   449.6    5.2      35.191
2014    9       20    11   5    5.00   449.3    5.2      35.145
2014    9       20    11  10    5.00   449.1    5.2      35.100
2014    9       20    11  16    5.00   448.9    5.2      35.054
2014    9       20    11  21    5.00   448.7    5.2      35.008
2014    9       20    11  27    5.00   448.4    5.2      34.961
2014    9       20    11  32    5.00   448.2    5.2      34.915
2014    9       20    11  38    4.99   448.0    5.2      34.869
2014    9       20    11  43    4.99   447.8    5.2      34.822
2014    9       20    11  49    4.99   447.5    5.2      34.776
2014    9       20    11  54    4.99   447.3    5.2      34.730
2014    9       20    11  59    4.99   447.1    5.2      34.683
2014    9       20    12   5    4.99   446.9    5.2      34.637
2014    9       20    12  10    4.99   446.6    5.2      34.590
2014    9       20    12  16    4.99   446.4    5.2      34.544
2014    9       20    12  21    4.99   446.2    5.2      34.498
2014    9       20    12  27    4.99   445.9    5.2      34.452
2014    9       20    12  32    4.99   445.7    5.2      34.406
2014    9       20    12  38    4.98   445.4    5.2      34.361
2014    9       20    12  43    4.98   445.2    5.2      34.315
2014    9       20    12  48    4.98   445.0    5.2      34.270
2014    9       20    12  54    4.98   444.7    5.2      34.225
2014    9       20    12  59    4.98   444.5    5.3      34.180
2014    9       20    13   5    4.98   444.3    5.3      34.136
2014    9       20    13  10    4.98   444.0    5.3      34.092
2014    9       20    13  16    4.98   443.8    5.3      34.048
2014    9       20    13  21    4.98   443.5    5.3      34.004
2014    9       20    13  27    4.98   443.3    5.3      33.961
2014    9       20    13  32    4.98   443.1    5.3      33.918
2014    9       20    13  37    4.98   442.8    5.3      33.875
2014    9       20    13  43    4.98   442.6    5.3      33.833
2014    9       20    13  48    4.98   442.3    5.3      33.791
2014    9       20    13  54    4.98   442.1    5.3      33.749
2014    9       20    13  59    4.98   441.9    5.3      33.708
2014    9       20    14   5    4.98   441.6    5.3      33.666
2014    9       20    14  10    4.98   441.4    5.3      33.626
2014    9       20    14  16    4.98   441.1    5.3      33.586
2014    9       20    14  21    4.98   440.9    5.3      33.546
2014    9       20    14  26    4.98   440.6    5.3      33.507
2014    9       20    14  32    4.98   440.4    5.3      33.468
2014    9       20    14  37    4.98   440.1    5.3      33.429
2014    9       20    14  43    4.98   439.9    5.3      33.391
2014    9       20    14  48    4.98   439.6    5.3      33.353
2014    9       20    14  54    4.98   439.4    5.3      33.316
2014    9       20    14  59    4.98   439.1    5.3      33.279
2014    9       20    15   5    4.98   438.9    5.3      33.242
2014    9       20    15  10    4.98   438.6    5.3      33.206
2014    9       20    15  15    4.98   438.4    5.3      33.171
2014    9       20    15  21    4.98   438.1    5.3      33.136
2014    9       20    15  26    4.98   437.9    5.3      33.102
2014    9       20    15  32    4.98   437.6    5.3      33.068
2014    9       20    15  37    4.98   437.4    5.4      33.035
2014    9       20    15  43    4.98   437.1    5.4      33.002
2014    9       20    15  48    4.98   436.9    5.4      32.970
2014    9       20    15  54    4.98   436.6    5.4      32.938
2014    9       20    15  59    4.98   436.4    5.4      32.908
2014    9       20    16   4    4.98   436.1    5.4      32.877
2014    9       20    16  10    4.99   435.9    5.4      32.848
2014    9       20    16  15    4.99   435.6    5.4      32.819
2014    9       20    16  21    4.99   435.3    5.4      32.792
2014    9       20    16  26    4.99   435.1    5.4      32.764
2014    9       20    16  32    4.99   434.8    5.4      32.738
2014    9       20    16  37    4.99   434.6    5.4      32.712
2014    9       20    16  43    4.99   434.3    5.4      32.687
2014    9       20    16  48    4.99   434.1    5.4      32.663
2014    9       20    16  53    5.00   433.8    5.5      32.639
2014    9       20    16  59    5.00   433.6    5.5      32.616
2014    9       20    17   4    5.00   433.3    5.5      32.593
2014    9       20    17  10    5.00   433.1    5.5      32.571
2014    9       20    17  15    5.00   432.8    5.5      32.550
2014    9       20    17  21    5.00   432.6    5.5      32.529
2014    9       20    17  26    5.00   432.4    5.5      32.509
2014    9       20    17  32    5.01   432.1    5.5      32.489
2014    9       20    17  37    5.01   431.9    5.5      32.470
2014    9       20    17  42    5.01   431.6    5.6      32.451
2014    9       20    17  48    5.01   431.4    5.6      32.433
2014    9       20    17  53    5.01   431.2    5.6      32.415
2014    9       20    17  59    5.02   430.9    5.6      32.397
2014    9       20    18   4    5.02   430.7    5.6      32.380
2014    9       20    18  10    5.02   430.5    5.6      32.362
2014    9       20    18  15    5.02   430.2    5.6      32.346
2014    9       20    18  20    5.03   430.0    5.6      32.329
2014    9       20    18  26    5.03   429.8    5.7      32.313
2014    9       20    18  31    5.03   429.6    5.7      32.298
2014    9       20    18  37    5.03   429.3    5.7      32.282
2014    9       20    18  42    5.04   429.1    5.7      32.267
2014    9       20    18  48    5.04   428.9    5.7      32.253
2014    9       20    18  53    5.04   428.7    5.7      32.238
2014    9       20    18  59    5.04   428.4    5.7      32.224
2014    9       20    19   4    5.05   428.2    5.7      32.211
2014    9       20    19   9    5.05   428.0    5.8      32.198
2014    9       20    19  15    5.05   427.8    5.8      32.186
2014    9       20    19  20    5.06   427.6    5.8      32.175
2014    9       20    19  26    5.06   427.4    5.8      32.165
2014    9       20    19  31    5.06   427.2    5.8      32.155
2014    9       20    19  37    5.06   427.0    5.8      32.146
2014    9       20    19  42    5.07   426.8    5.8      32.137
2014    9       20    19  48    5.07   426.6    5.8      32.128
2014    9       20    19  53    5.07   426.4    5.9      32.119
2014    9       20    19  59    5.08   426.2    5.9      32.109
2014    9       20    20   4    5.08   426.0    5.9      32.100
2014    9       20    20   9    5.08   425.8    5.9      32.091
2014    9       20    20  15    5.09   425.6    5.9      32.082
2014    9       20    20  20    5.09   425.4    5.9      32.073
2014    9       20    20  26    5.09   425.2    5.9      32.063
2014    9       20    20  31    5.10   425.1    5.9      32.054
2014    9       20    20  37    5.10   424.9    6.0      32.045
2014    9       20    20  42    5.10   424.7    6.0      32.035
2014    9       20    20  48    5.11   424.5    6.0      32.026
2014    9       20    20  53    5.11   424.3    6.0      32.017
2014    9       20    20  58    5.11   424.1    6.0      32.008
2014    9       20    21   4    5.12   424.0    6.0      31.998
2014    9       20    21   9    5.12   423.8    6.0      31.989
2014    9       20    21  15    5.12   423.6    6.0      31.980
2014    9       20    21  20    5.13   423.4    6.0      31.972
2014    9       20    21  26    5.13   423.3    6.1      31.963
2014    9       20    21  31    5.13   423.1    6.1      31.954
2014    9       20    21  37    5.14   422.9    6.1      31.946
2014    9       20    21  42    5.14   422.8    6.1      31.938
2014    9       20    21  47    5.15   422.6    6.1      31.930
2014    9       20    21  53    5.15   422.4    6.1      31.922
2014    9       20    21  58    5.15   422.3    6.1      31.914
2014    9       20    22   4    5.16   422.1    6.1      31.906
2014    9       20    22   9    5.16   422.0    6.1      31.899
2014    9       20    22  15    5.17   421.8    6.2      31.891
2014    9       20    22  20    5.17   421.6    6.2      31.884
2014    9       20    22  26    5.17   421.5    6.2      31.877
2014    9       20    22  31    5.18   421.3    6.2      31.870
2014    9       20    22  36    5.18   421.2    6.2      31.863
2014    9       20    22  42    5.19   421.0    6.2      31.857
2014    9       20    22  47    5.19   420.9    6.2      31.850
2014    9       20    22  53    5.19   420.7    6.2      31.844
2014    9       20    22  58    5.20   420.5    6.3      31.839
2014    9       20    23   4    5.20   420.4    6.3      31.834
2014    9       20    23   9    5.21   420.2    6.3      31.829
2014    9       20    23  15    5.21   420.1    6.3      31.825
2014    9       20    23  20    5.22   419.9    6.3      31.822
2014    9       20    23  25    5.22   419.8    6.3      31.819
2014    9       20    23  31    5.23   419.6    6.3      31.817
2014    9       20    23  36    5.23   419.5    6.3      31.815
2014    9       20    23  42    5.24   419.4    6.4      31.815
2014    9       20    23  47    5.24   419.2    6.4      31.815
2014    9       20    23  53    5.25   419.1    6.4      31.816
2014    9       20    23  58    5.25   418.9    6.4      31.818
2014    9       21     0   3    5.26   418.8    6.4      31.821
2014    9       21     0   9    5.26   418.7    6.4      31.825
2014    9       21     0  14    5.27   418.6    6.5      31.830
2014    9       21     0  20    5.27   418.4    6.5      31.836
2014    9       21     0  25    5.28   418.3    6.5      31.843
2014    9       21     0  31    5.28   418.2    6.5      31.851
2014    9       21     0  36    5.29   418.1    6.5      31.860
2014    9       21     0  42    5.30   418.0    6.5      31.871
2014    9       21     0  47    5.30   417.8    6.6      31.883
2014    9       21     0  52    5.31   417.7    6.6      31.896
2014    9       21     0  58    5.31   417.6    6.6      31.910
2014    9       21     1   3    5.32   417.5    6.6      31.925
2014    9       21     1   9    5.33   417.4    6.6      31.942
2014    9       21     1  14    5.33   417.3    6.7      31.959
2014    9       21     1  20    5.34   417.2    6.7      31.979
2014    9       21     1  25    5.35   417.2    6.7      32.000
2014    9       21     1  31    5.35   417.1    6.7      32.024
2014    9       21     1  36    5.36   417.0    6.8      32.049
2014    9       21     1  41    5.37   416.9    6.8      32.076
2014    9       21     1  47    5.37   416.9    6.8      32.104
2014    9       21     1  52    5.38   416.8    6.8      32.133
2014    9       21     1  58    5.39   416.7    6.9      32.164
2014    9       21     2   3    5.40   416.7    6.9      32.198
2014    9       21     2   9    5.40   416.6    6.9      32.234
2014    9       21     2  14    5.41   416.6    6.9      32.273
2014    9       21     2  20    5.42   416.6    7.0      32.313
2014    9       21     2  25    5.43   416.5    7.0      32.356
2014    9       21     2  30    5.43   416.5    7.0      32.401
2014    9       21     2  36    5.44   416.5    7.0      32.447
2014    9       21     2  41    5.45   416.5    7.0      32.493
2014    9       21     2  47    5.45   416.5    7.1      32.538
2014    9       21     2  52    5.46   416.4    7.1      32.582
2014    9       21     2  58    5.47   416.4    7.1      32.625
2014    9       21     3   3    5.48   416.4    7.1      32.666
2014    9       21     3   9    5.48   416.4    7.1      32.705
2014    9       21     3  14    5.49   416.4    7.2      32.743
2014    9       21     3  19    5.50   416.4    7.2      32.781
2014    9       21     3  25    5.50   416.3    7.2      32.816
2014    9       21     3  30    5.51   416.3    7.2      32.851
2014    9       21     3  36    5.52   416.3    7.2      32.884
2014    9       21     3  41    5.52   416.3    7.3      32.917
2014    9       21     3  47    5.53   416.3    7.3      32.948
2014    9       21     3  52    5.54   416.3    7.3      32.978
2014    9       21     3  58    5.54   416.3    7.3      33.007
2014    9       21     4   3    5.55   416.3    7.3      33.035
2014    9       21     4   8    5.56   416.3    7.3      33.062
2014    9       21     4  14    5.56   416.2    7.3      33.088
2014    9       21     4  19    5.57   416.2    7.4      33.114
2014    9       21     4  25    5.58   416.2    7.4      33.139
2014    9       21     4  30    5.58   416.2    7.4      33.163
2014    9       21     4  36    5.59   416.2    7.4      33.186
2014    9       21     4  41    5.60   416.2    7.4      33.209
2014    9       21     4  47    5.60   416.2    7.4      33.231
2014    9       21     4  52    5.61   416.2    7.4      33.253
2014    9       21     4  57    5.62   416.2    7.5      33.274
2014    9       21     5   3    5.62   416.2    7.5      33.295
2014    9       21     5   8    5.63   416.2    7.5      33.315
2014    9       21     5  14    5.64   416.2    7.5      33.335
2014    9       21     5  19    5.64   416.2    7.5      33.355
2014    9       21     5  25    5.65   416.2    7.5      33.374
2014    9       21     5  30    5.66   416.2    7.5      33.394
2014    9       21     5  36    5.66   416.2    7.5      33.413
2014    9       21     5  41    5.67   416.2    7.6      33.432
2014    9       21     5  46    5.68   416.2    7.6      33.451
2014    9       21     5  52    5.68   416.2    7.6      33.469
2014    9       21     5  57    5.69   416.2    7.6      33.488
2014    9       21     6   3    5.70   416.2    7.6      33.507
2014    9       21     6   8    5.70   416.2    7.6      33.526
2014    9       21     6  14    5.71   416.2    7.6      33.545
2014    9       21     6  19    5.72   416.2    7.6      33.564
2014    9       21     6  25    5.72   416.2    7.6      33.583
2014    9       21     6  30    5.73   416.3    7.7      33.603
2014    9       21     6  35    5.74   416.3    7.7      33.622
2014    9       21     6  41    5.74   416.3    7.7      33.642
2014    9       21     6  46    5.75   416.3    7.7      33.662
2014    9       21     6  52    5.76   416.3    7.7      33.682
2014    9       21     6  57    5.76   416.4    7.7      33.702
2014    9       21     7   3    5.77   416.4    7.7      33.722
2014    9       21     7   8    5.78   416.4    7.7      33.743
2014    9       21     7  14    5.78   416.4    7.8      33.764
2014    9       21     7  19    5.79   416.5    7.8      33.785
2014    9       21     7  24    5.80   416.5    7.8      33.807
2014    9       21     7  30    5.80   416.5    7.8      33.829
2014    9       21     7  35    5.81   416.5    7.8      33.852
2014    9       21     7  41    5.82   416.6    7.8      33.875
2014    9       21     7  46    5.83   416.6    7.8      33.898
2014    9       21     7  52    5.83   416.6    7.8      33.923
2014    9       21     7  57    5.84   416.7    7.9      33.948
2014    9       21     8   2    5.85   416.7    7.9      33.973
2014    9       21     8   8    5.85   416.7    7.9      34.000
2014    9       21     8  13    5.86   416.8    7.9      34.028
2014    9       21     8  19    5.87   416.8    7.9      34.057
2014    9       21     8  24    5.87   416.9    7.9      34.087
2014    9       21     8  30    5.88   416.9    7.9      34.118
2014    9       21     8  35    5.89   417.0    8.0      34.151
2014    9       21     8  41    5.89   417.0    8.0      34.185
2014    9       21     8  46    5.90   417.1    8.0      34.221
2014    9       21     8  51    5.91   417.1    8.0      34.258
2014    9       21     8  57    5.92   417.2    8.0      34.297
2014    9       21     9   2    5.92   417.2    8.0      34.339
2014    9       21     9   8    5.93   417.3    8.1      34.383
2014    9       21     9  13    5.94   417.4    8.1      34.429
2014    9       21     9  19    5.95   417.5    8.1      34.478
2014    9       21     9  24    5.95   417.5    8.1      34.528
2014    9       21     9  30    5.96   417.6    8.1      34.580
2014    9       21     9  35    5.97   417.7    8.2      34.633
2014    9       21     9  40    5.98   417.8    8.2      34.687
2014    9       21     9  46    5.98   417.9    8.2      34.741
2014    9       21     9  51    5.99   417.9    8.2      34.797
2014    9       21     9  57    6.00   418.0    8.2      34.854
2014    9       21    10   2    6.00   418.1    8.2      34.912
2014    9       21    10   8    6.01   418.2    8.3      34.970
2014    9       21    10  13    6.02   418.4    8.3      35.030
2014    9       21    10  19    6.03   418.5    8.3      35.091
2014    9       21    10  24    6.03   418.6    8.3      35.152
2014    9       21    10  29    6.04   418.7    8.3      35.211
2014    9       21    10  35    6.05   418.8    8.3      35.270
2014    9       21    10  40    6.05   418.9    8.3      35.327
2014    9       21    10  46    6.06   419.0    8.4      35.382
2014    9       21    10  51    6.07   419.1    8.4      35.436
2014    9       21    10  57    6.08   419.2    8.4      35.488
2014    9       21    11   2    6.08   419.3    8.4      35.539
2014    9       21    11   8    6.09   419.4    8.4      35.589
2014    9       21    11  13    6.09   419.5    8.4      35.637
2014    9       21    11  18    6.10   419.6    8.4      35.684
2014    9       21    11  24    6.11   419.7    8.4      35.730
2014    9       21    11  29    6.11   419.9    8.4      35.775
2014    9       21    11  35    6.12   420.0    8.4      35.818
2014    9       21    11  40    6.13   420.1    8.4      35.861
2014    9       21    11  46    6.13   420.2    8.5      35.902
2014    9       21    11  51    6.14   420.3    8.5      35.943
2014    9       21    11  57    6.15   420.4    8.5      35.983
2014    9       21    12   2    6.15   420.5    8.5      36.022
2014    9       21    12   7    6.16   420.6    8.5      36.060
2014    9       21    12  13    6.16   420.7    8.5      36.097
2014    9       21    12  18    6.17   420.8    8.5      36.133
2014    9       21    12  24    6.18   420.9    8.5      36.169
2014    9       21    12  29    6.18   421.1    8.5      36.204
2014    9       21    12  35    6.19   421.2    8.5      36.239
2014    9       21    12  40    6.20   421.3    8.5      36.272
2014    9       21    12  46    6.20   421.4    8.5      36.305
2014    9       21    12  51    6.21   421.5    8.5      36.338
2014    9       21    12  56    6.21   421.6    8.5      36.370
2014    9       21    13   2    6.22   421.7    8.5      36.401
2014    9       21    13   7    6.23   421.8    8.5      36.432
2014    9       21    13  13    6.23   422.0    8.5      36.462
2014    9       21    13  18    6.24   422.1    8.5      36.491
2014    9       21    13  24    6.24   422.2    8.5      36.520
2014    9       21    13  29    6.25   422.3    8.5      36.549
2014    9       21    13  35    6.26   422.4    8.5      36.578
2014    9       21    13  40    6.26   422.5    8.5      36.605
2014    9       21    13  45    6.27   422.6    8.5      36.633
2014    9       21    13  51    6.27   422.8    8.5      36.660
2014    9       21    13  56    6.28   422.9    8.5      36.687
2014    9       21    14   2    6.28   423.0    8.5      36.714
2014    9       21    14   7    6.29   423.1    8.5      36.740
2014    9       21    14  13    6.30   423.2    8.5      36.766
2014    9       21    14  18    6.30   423.3    8.5      36.792
2014    9       21    14  24    6.31   423.5    8.5      36.818
2014    9       21    14  29    6.31   423.6    8.5      36.843
2014    9       21    14  34    6.32   423.7    8.5      36.869
2014    9       21    14  40    6.33   423.8    8.5      36.894
2014    9       21    14  45    6.33   423.9    8.5      36.919
2014    9       21    14  51    6.34   424.0    8.5      36.944
2014    9       21    14  56    6.34   424.2    8.5      36.969
2014    9       21    15   2    6.35   424.3    8.5      36.994
2014    9       21    15   7    6.36   424.4    8.5      37.019
2014    9       21    15  13    6.36   424.5    8.5      37.045
2014    9       21    15  18    6.37   424.6    8.5      37.070
2014    9       21    15  23    6.37   424.8    8.5      37.096
2014    9       21    15  29    6.38   424.9    8.5      37.122
2014    9       21    15  34    6.39   425.0    8.5      37.149
2014    9       21    15  40    6.39   425.1    8.5      37.175
2014    9       21    15  45    6.40   425.2    8.5      37.203
2014    9       21    15  51    6.40   425.4    8.5      37.230
2014    9       21    15  56    6.41   425.5    8.5      37.259
2014    9       21    16   1    6.42   425.6    8.5      37.288
2014    9       21    16   7    6.42   425.7    8.5      37.317
2014    9       21    16  12    6.43   425.8    8.5      37.347
2014    9       21    16  18    6.43   426.0    8.5      37.378
2014    9       21    16  23    6.44   426.1    8.5      37.410
2014    9       21    16  29    6.45   426.2    8.5      37.443
2014    9       21    16  34    6.45   426.3    8.5      37.477
2014    9       21    16  40    6.46   426.5    8.5      37.512
2014    9       21    16  45    6.46   426.6    8.5      37.549
2014    9       21    16  50    6.47   426.7    8.5      37.586
2014    9       21    16  56    6.48   426.9    8.5      37.625
2014    9       21    17   1    6.48   427.0    8.5      37.664
2014    9       21    17   7    6.49   427.1    8.5      37.706
2014    9       21    17  12    6.50   427.3    8.5      37.750
2014    9       21    17  18    6.50   427.4    8.5      37.796
2014    9       21    17  23    6.51   427.5    8.5      37.845
2014    9       21    17  29    6.51   427.7    8.5      37.895
2014    9       21    17  34    6.52   427.8    8.6      37.947
2014    9       21    17  39    6.53   428.0    8.6      38.001
2014    9       21    17  45    6.53   428.1    8.6      38.057
2014    9       21    17  50    6.54   428.2    8.6      38.115
2014    9       21    17  56    6.54   428.4    8.6      38.176
2014    9       21    18   1    6.55   428.5    8.6      38.238
2014    9       21    18   7    6.55   428.7    8.6      38.302
2014    9       21    18  12    6.56   428.9    8.6      38.369
2014    9       21    18  18    6.57   429.0    8.6      38.437
2014    9       21    18  23    6.57   429.2    8.7      38.507
2014    9       21    18  28    6.58   429.3    8.7      38.578
2014    9       21    18  34    6.58   429.5    8.7      38.648
2014    9       21    18  39    6.59   429.7    8.7      38.720
2014    9       21    18  45    6.59   429.8    8.7      38.791
2014    9       21    18  50    6.59   430.0    8.7      38.864
2014    9       21    18  56    6.60   430.2    8.7      38.936
2014    9       21    19   1    6.60   430.4    8.7      39.009
2014    9       21    19   7    6.61   430.5    8.7      39.083
2014    9       21    19  12    6.61   430.7    8.8      39.157
2014    9       21    19  18    6.62   430.9    8.8      39.229
2014    9       21    19  23    6.62   431.1    8.8      39.300
2014    9       21    19  28    6.63   431.3    8.8      39.372
2014    9       21    19  34    6.63   431.4    8.8      39.444
2014    9       21    19  39    6.63   431.6    8.8      39.514
2014    9       21    19  45    6.64   431.8    8.8      39.584
2014    9       21    19  50    6.64   432.0    8.8      39.654
2014    9       21    19  56    6.64   432.2    8.8      39.722
2014    9       21    20   1    6.65   432.4    8.8      39.790
2014    9       21    20   6    6.65   432.6    8.8      39.856
2014    9       21    20  12    6.66   432.8    8.8      39.920
2014    9       21    20  17    6.66   433.0    8.8      39.981
2014    9       21    20  23    6.66   433.2    8.9      40.040
2014    9       21    20  28    6.67   433.4    8.9      40.097
2014    9       21    20  34    6.67   433.6    8.9      40.152
2014    9       21    20  39    6.67   433.8    8.9      40.205
2014    9       21    20  45    6.67   434.0    8.9      40.257
2014    9       21    20  50    6.68   434.2    8.9      40.306
2014    9       21    20  55    6.68   434.4    8.9      40.354
2014    9       21    21   1    6.68   434.6    8.9      40.401
2014    9       21    21   6    6.69   434.8    8.9      40.446
2014    9       21    21  12    6.69   435.0    8.9      40.489
2014    9       21    21  17    6.69   435.2    8.9      40.532
2014    9       21    21  23    6.70   435.5    8.9      40.574
2014    9       21    21  28    6.70   435.7    8.9      40.615
2014    9       21    21  34    6.70   435.9    8.9      40.656
2014    9       21    21  39    6.70   436.1    8.9      40.695
2014    9       21    21  44    6.71   436.3    8.9      40.734
2014    9       21    21  50    6.71   436.5    8.9      40.773
2014    9       21    21  55    6.71   436.7    8.9      40.811
2014    9       21    22   1    6.72   436.9    8.9      40.849
2014    9       21    22   6    6.72   437.1    8.9      40.887
2014    9       21    22  12    6.72   437.3    8.8      40.925
2014    9       21    22  17    6.73   437.5    8.8      40.962
2014    9       21    22  23    6.73   437.7    8.8      41.000
2014    9       21    22  28    6.73   437.9    8.8      41.037
2014    9       21    22  33    6.73   438.2    8.8      41.075
2014    9       21    22  39    6.74   438.4    8.8      41.112
2014    9       21    22  44    6.74   438.6    8.8      41.150
2014    9       21    22  50    6.74   438.8    8.8      41.188
2014    9       21    22  55    6.75   439.0    8.8      41.226
2014    9       21    23   1    6.75   439.2    8.8      41.265
2014    9       21    23   6    6.75   439.4    8.8      41.304
2014    9       21    23  11    6.76   439.6    8.8      41.343
2014    9       21    23  17    6.76   439.8    8.8      41.382
2014    9       21    23  22    6.76   440.0    8.8      41.422
2014    9       21    23  28    6.76   440.3    8.8      41.462
2014    9       21    23  33    6.77   440.5    8.8      41.503
2014    9       21    23  39    6.77   440.7    8.8      41.544
2014    9       21    23  44    6.77   440.9    8.8      41.585
2014    9       21    23  50    6.78   441.1    8.8      41.627
2014    9       21    23  55    6.78   441.3    8.8      41.667
2014    9       22     0   0    6.78   441.5    8.8      41.708
2014    9       22     0   6    6.78   441.7    8.8      41.748
2014    9       22     0  11    6.78   441.9    8.8      41.787
2014    9       22     0  17    6.79   442.1    8.8      41.826
2014    9       22     0  22    6.79   442.4    8.8      41.864
2014    9       22     0  28    6.79   442.6    8.7      41.902
2014    9       22     0  33    6.79   442.8    8.7      41.939
2014    9       22     0  39    6.80   442.9    8.7      41.976
2014    9       22     0  44    6.80   443.1    8.7      42.012
2014    9       22     0  49    6.80   443.3    8.7      42.049
2014    9       22     0  55    6.80   443.5    8.7      42.085
2014    9       22     1   0    6.80   443.7    8.7      42.121
2014    9       22     1   6    6.81   443.9    8.7      42.157
2014    9       22     1  11    6.81   444.1    8.7      42.194
2014    9       22     1  17    6.81   444.3    8.7      42.231
2014    9       22     1  22    6.81   444.5    8.7      42.269
2014    9       22     1  28    6.81   444.6    8.7      42.307
2014    9       22     1  33    6.82   444.8    8.7      42.346
2014    9       22     1  38    6.82   445.0    8.7      42.386
2014    9       22     1  44    6.82   445.2    8.7      42.427
2014    9       22     1  49    6.82   445.4    8.7      42.469
2014    9       22     1  55    6.82   445.5    8.7      42.514
2014    9       22     2   0    6.83   445.7    8.7      42.561
2014    9       22     2   6    6.83   445.9    8.7      42.609
2014    9       22     2  11    6.83   446.1    8.7      42.659
2014    9       22     2  17    6.83   446.3    8.7      42.710
2014    9       22     2  22    6.83   446.5    8.7      42.762
2014    9       22     2  27    6.84   446.7    8.7      42.817
2014    9       22     2  33    6.84   446.9    8.7      42.873
2014    9       22     2  38    6.84   447.1    8.7      42.930
2014    9       22     2  44    6.84   447.3    8.7      42.987
2014    9       22     2  49    6.85   447.6    8.7      43.045
2014    9       22     2  55    6.85   447.8    8.7      43.103
2014    9       22     3   0    6.85   448.0    8.7      43.162
2014    9       22     3   6    6.85   448.3    8.7      43.221
2014    9       22     3  11    6.85   448.5    8.7      43.278
2014    9       22     3  16    6.86   448.7    8.7      43.333
2014    9       22     3  22    6.86   449.0    8.7      43.386
2014    9       22     3  27    6.86   449.2    8.7      43.437
2014    9       22     3  33    6.86   449.4    8.7      43.486
2014    9       22     3  38    6.86   449.7    8.6      43.533
2014    9       22     3  44    6.86   449.9    8.6      43.579
2014    9       22     3  49    6.86   450.2    8.6      43.623
2014    9       22     3  55    6.87   450.4    8.6      43.665
2014    9       22     4   0    6.87   450.6    8.6      43.707
2014    9       22     4   5    6.87   450.9    8.6      43.746
2014    9       22     4  11    6.87   451.1    8.6      43.785
2014    9       22     4  16    6.87   451.3    8.6      43.823
2014    9       22     4  22    6.87   451.6    8.6      43.860
2014    9       22     4  27    6.87   451.8    8.6      43.897
2014    9       22     4  33    6.87   452.0    8.6      43.932
2014    9       22     4  38    6.87   452.3    8.6      43.967
2014    9       22     4  44    6.87   452.5    8.5      44.002
2014    9       22     4  49    6.87   452.7    8.5      44.036
2014    9       22     4  54    6.88   453.0    8.5      44.069
2014    9       22     5   0    6.88   453.2    8.5      44.102
2014    9       22     5   5    6.88   453.5    8.5      44.135
2014    9       22     5  11    6.88   453.7    8.5      44.167
2014    9       22     5  16    6.88   453.9    8.5      44.199
2014    9       22     5  22    6.88   454.2    8.5      44.231
2014    9       22     5  27    6.88   454.4    8.5      44.262
2014    9       22     5  33    6.88   454.6    8.5      44.294
2014    9       22     5  38    6.88   454.9    8.5      44.325
2014    9       22     5  43    6.88   455.1    8.4      44.356
2014    9       22     5  49    6.88   455.3    8.4      44.387
2014    9       22     5  54    6.89   455.6    8.4      44.418
2014    9       22     6   0    6.89   455.8    8.4      44.450
2014    9       22     6   5    6.89   456.0    8.4      44.481
2014    9       22     6  11    6.89   456.3    8.4      44.513
2014    9       22     6  16    6.89   456.5    8.4      44.545
2014    9       22     6  21    6.89   456.7    8.4      44.579
2014    9       22     6  27    6.89   457.0    8.4      44.613
2014    9       22     6  32    6.89   457.2    8.4      44.647
2014    9       22     6  38    6.89   457.4    8.3      44.683
2014    9       22     6  43    6.90   457.7    8.3      44.719
2014    9       22     6  49    6.90   457.9    8.3      44.757
2014    9       22     6  54    6.90   458.2    8.3      44.795
2014    9       22     7   0    6.90   458.4    8.3      44.834
2014    9       22     7   5    6.90   458.7    8.3      44.874
2014    9       22     7  10    6.90   459.0    8.3      44.913
2014    9       22     7  16    6.90   459.2    8.3      44.952
2014    9       22     7  21    6.90   459.5    8.3      44.990
2014    9       22     7  27    6.90   459.7    8.2      45.027
2014    9       22     7  32    6.90   460.0    8.2      45.063
2014    9       22     7  38    6.90   460.3    8.2      45.098
2014    9       22     7  43    6.90   460.5    8.2      45.132
2014    9       22     7  49    6.90   460.8    8.2      45.164
2014    9       22     7  54    6.90   461.1    8.2      45.195
2014    9       22     7  59    6.90   461.3    8.2      45.225
2014    9       22     8   5    6.90   461.6    8.2      45.254
2014    9       22     8  10    6.90   461.9    8.1      45.280
2014    9       22     8  16    6.90   462.1    8.1      45.306
2014    9       22     8  21    6.90   462.4    8.1      45.329
2014    9       22     8  27    6.90   462.7    8.1      45.351
2014    9       22     8  32    6.90   463.0    8.1      45.370
2014    9       22     8  38    6.90   463.2    8.1      45.387
2014    9       22     8  43    6.90   463.5    8.0      45.402
2014    9       22     8  48    6.89   463.8    8.0      45.415
2014    9       22     8  54    6.89   464.1    8.0      45.426
2014    9       22     8  59    6.89   464.3    8.0      45.435
2014    9       22     9   5    6.89   464.6    8.0      45.442
2014    9       22     9  10    6.89   464.9    7.9      45.447
2014    9       22     9  16    6.89   465.1    7.9      45.449
2014    9       22     9  21    6.88   465.4    7.9      45.450
2014    9       22     9  27    6.88   465.6    7.9      45.451
2014    9       22     9  32    6.88   465.9    7.9      45.448
2014    9       22     9  37    6.88   466.1    7.8      45.444
2014    9       22     9  43    6.87   466.4    7.8      45.440
2014    9       22     9  48    6.87   466.6    7.8      45.434
2014    9       22     9  54    6.87   466.9    7.8      45.427
2014    9       22     9  59    6.87   467.1    7.8      45.420
2014    9       22    10   5    6.86   467.4    7.7      45.413
2014    9       22    10  10    6.86   467.6    7.7      45.403
2014    9       22    10  16    6.86   467.8    7.7      45.391
2014    9       22    10  21    6.85   468.1    7.7      45.377
2014    9       22    10  26    6.85   468.3    7.7      45.362
2014    9       22    10  32    6.85   468.5    7.6      45.346
2014    9       22    10  37    6.84   468.7    7.6      45.329
2014    9       22    10  43    6.84   468.9    7.6      45.310
2014    9       22    10  48    6.84   469.1    7.6      45.291
2014    9       22    10  54    6.84   469.3    7.5      45.274
2014    9       22    10  59    6.83   469.5    7.5      45.257
2014    9       22    11   5    6.83   469.7    7.5      45.242
2014    9       22    11  10    6.83   469.9    7.5      45.227
2014    9       22    11  15    6.82   470.1    7.5      45.213
2014    9       22    11  21    6.82   470.3    7.5      45.201
2014    9       22    11  26    6.82   470.5    7.4      45.189
2014    9       22    11  32    6.81   470.7    7.4      45.179
2014    9       22    11  37    6.81   470.9    7.4      45.169
2014    9       22    11  43    6.81   471.1    7.4      45.161
2014    9       22    11  48    6.81   471.3    7.4      45.154
2014    9       22    11  54    6.80   471.5    7.4      45.147
2014    9       22    11  59    6.80   471.7    7.3      45.141
2014    9       22    12   4    6.80   471.8    7.3      45.134
2014    9       22    12  10    6.80   472.0    7.3      45.128
2014    9       22    12  15    6.79   472.2    7.3      45.120
2014    9       22    12  21    6.79   472.4    7.3      45.113
2014    9       22    12  26    6.79   472.6    7.3      45.105
2014    9       22    12  32    6.78   472.8    7.3      45.096
2014    9       22    12  37    6.78   473.0    7.2      45.088
2014    9       22    12  42    6.78   473.1    7.2      45.079
2014    9       22    12  48    6.77   473.3    7.2      45.070
2014    9       22    12  53    6.77   473.5    7.2      45.061
2014    9       22    12  59    6.77   473.6    7.2      45.052
2014    9       22    13   4    6.77   473.8    7.2      45.043
2014    9       22    13  10    6.76   474.0    7.2      45.034
2014    9       22    13  15    6.76   474.1    7.1      45.025
2014    9       22    13  21    6.76   474.3    7.1      45.016
2014    9       22    13  26    6.75   474.5    7.1      45.007
2014    9       22    13  31    6.75   474.6    7.1      44.997
2014    9       22    13  37    6.75   474.8    7.1      44.987
2014    9       22    13  42    6.74   475.0    7.1      44.977
2014    9       22    13  48    6.74   475.1    7.1      44.966
2014    9       22    13  53    6.74   475.3    7.0      44.955
2014    9       22    13  59    6.73   475.5    7.0      44.944
2014    9       22    14   4    6.73   475.7    7.0      44.932
2014    9       22    14  10    6.73   475.8    7.0      44.920
2014    9       22    14  15    6.72   476.0    7.0      44.907
2014    9       22    14  20    6.72   476.2    7.0      44.894
2014    9       22    14  26    6.72   476.3    7.0      44.881
2014    9       22    14  31    6.71   476.5    6.9      44.867
2014    9       22    14  37    6.71   476.7    6.9      44.852
2014    9       22    14  42    6.70   476.8    6.9      44.837
2014    9       22    14  48    6.70   477.0    6.9      44.822
2014    9       22    14  53    6.70   477.2    6.9      44.806
2014    9       22    14  58    6.69   477.3    6.9      44.789
2014    9       22    15   4    6.69   477.5    6.9      44.772
2014    9       22    15   9    6.69   477.7    6.8      44.755
2014    9       22    15  15    6.68   477.9    6.8      44.737
2014    9       22    15  20    6.68   478.0    6.8      44.718
2014    9       22    15  26    6.67   478.2    6.8      44.697
2014    9       22    15  31    6.67   478.4    6.8      44.675
2014    9       22    15  37    6.67   478.5    6.8      44.652
2014    9       22    15  42    6.66   478.7    6.8      44.627
2014    9       22    15  47    6.66   478.9    6.7      44.601
2014    9       22    15  53    6.65   479.0    6.7      44.574
2014    9       22    15  58    6.65   479.2    6.7      44.545
2014    9       22    16   4    6.64   479.3    6.7      44.514
2014    9       22    16   9    6.64   479.5    6.7      44.481
2014    9       22    16  15    6.63   479.6    6.7      44.447
2014    9       22    16  20    6.63   479.8    6.6      44.412
2014    9       22    16  26    6.62   479.9    6.6      44.377
2014    9       22    16  31    6.62   480.1    6.6      44.339
2014    9       22    16  36    6.61   480.2    6.6      44.303
2014    9       22    16  42    6.61   480.3    6.6      44.267
2014    9       22    16  47    6.61   480.5    6.6      44.232
2014    9       22    16  53    6.60   480.6    6.6      44.197
2014    9       22    16  58    6.60   480.7    6.5      44.163
2014    9       22    17   4    6.59   480.9    6.5      44.128
2014    9       22    17   9    6.59   481.0    6.5      44.093
2014    9       22    17  15    6.58   481.1    6.5      44.059
2014    9       22    17  20    6.58   481.2    6.5      44.025
2014    9       22    17  26    6.57   481.4    6.5      43.989
2014    9       22    17  31    6.57   481.5    6.5      43.952
2014    9       22    17  36    6.56   481.6    6.4      43.915
2014    9       22    17  42    6.56   481.7    6.4      43.878
2014    9       22    17  47    6.55   481.7    6.4      43.841
2014    9       22    17  53    6.55   481.8    6.4      43.804
2014    9       22    17  58    6.54   481.9    6.4      43.766
2014    9       22    18   4    6.54   481.9    6.4      43.731
2014    9       22    18   9    6.54   482.0    6.4      43.697
2014    9       22    18  14    6.53   482.1    6.4      43.665
2014    9       22    18  20    6.53   482.1    6.4      43.634
2014    9       22    18  25    6.52   482.2    6.3      43.606
2014    9       22    18  31    6.52   482.2    6.3      43.579
2014    9       22    18  36    6.52   482.3    6.3      43.555
2014    9       22    18  42    6.51   482.3    6.3      43.531
2014    9       22    18  47    6.51   482.4    6.3      43.509
2014    9       22    18  53    6.51   482.5    6.3      43.489
2014    9       22    18  58    6.50   482.5    6.3      43.470
2014    9       22    19   3    6.50   482.6    6.3      43.452
2014    9       22    19   9    6.50   482.6    6.3      43.433
2014    9       22    19  14    6.49   482.7    6.3      43.413
2014    9       22    19  20    6.49   482.7    6.3      43.394
2014    9       22    19  25    6.49   482.7    6.3      43.374
2014    9       22    19  31    6.48   482.8    6.2      43.354
2014    9       22    19  36    6.48   482.8    6.2      43.334
2014    9       22    19  42    6.48   482.9    6.2      43.314
2014    9       22    19  47    6.48   482.9    6.2      43.293
2014    9       22    19  52    6.47   482.9    6.2      43.273
2014    9       22    19  58    6.47   483.0    6.2      43.252
2014    9       22    20   3    6.47   483.0    6.2      43.230
2014    9       22    20   9    6.47   483.0    6.2      43.209
2014    9       22    20  14    6.46   483.1    6.2      43.188
2014    9       22    20  20    6.46   483.1    6.2      43.167
2014    9       22    20  25    6.46   483.1    6.2      43.145
2014    9       22    20  30    6.46   483.2    6.2      43.123
2014    9       22    20  36    6.45   483.2    6.2      43.101
2014    9       22    20  41    6.45   483.2    6.2      43.079
2014    9       22    20  47    6.45   483.3    6.1      43.056
2014    9       22    20  52    6.45   483.3    6.1      43.034
2014    9       22    20  58    6.44   483.3    6.1      43.011
2014    9       22    21   3    6.44   483.4    6.1      42.988
2014    9       22    21   9    6.44   483.4    6.1      42.965
2014    9       22    21  14    6.44   483.4    6.1      42.941
2014    9       22    21  19    6.43   483.5    6.1      42.917
2014    9       22    21  25    6.43   483.5    6.1      42.893
2014    9       22    21  30    6.43   483.5    6.1      42.869
2014    9       22    21  36    6.42   483.6    6.1      42.844
2014    9       22    21  41    6.42   483.6    6.1      42.819
2014    9       22    21  47    6.42   483.6    6.1      42.794
2014    9       22    21  52    6.42   483.7    6.1      42.768
2014    9       22    21  58    6.41   483.7    6.1      42.743
2014    9       22    22   3    6.41   483.7    6.0      42.717
2014    9       22    22   8    6.41   483.8    6.0      42.691
2014    9       22    22  14    6.41   483.8    6.0      42.665
2014    9       22    22  19    6.40   483.8    6.0      42.639
2014    9       22    22  25    6.40   483.8    6.0      42.613
2014    9       22    22  30    6.40   483.9    6.0      42.586
2014    9       22    22  36    6.40   483.9    6.0      42.560
2014    9       22    22  41    6.39   483.9    6.0      42.534
2014    9       22    22  47    6.39   483.9    6.0      42.507
2014    9       22    22  52    6.39   483.9    6.0      42.480
2014    9       22    22  57    6.38   484.0    6.0      42.454
2014    9       22    23   3    6.38   484.0    6.0      42.427
2014    9       22    23   8    6.38   484.0    6.0      42.400
2014    9       22    23  14    6.38   484.0    6.0      42.373
2014    9       22    23  19    6.37   484.0    6.0      42.345
2014    9       22    23  25    6.37   484.0    6.0      42.318
2014    9       22    23  30    6.37   484.0    6.0      42.291
2014    9       22    23  36    6.37   484.0    5.9      42.264
2014    9       22    23  41    6.36   484.0    5.9      42.238
2014    9       22    23  46    6.36   484.0    5.9      42.212
2014    9       22    23  52    6.36   484.0    5.9      42.186
2014    9       22    23  57    6.36   484.0    5.9      42.161
2014    9       23     0   3    6.35   484.0    5.9      42.138
2014    9       23     0   8    6.35   484.0    5.9      42.114
2014    9       23     0  14    6.35   484.0    5.9      42.093
2014    9       23     0  19    6.35   484.0    5.9      42.072
2014    9       23     0  25    6.35   484.0    5.9      42.052
2014    9       23     0  30    6.34   484.0    5.9      42.033
2014    9       23     0  35    6.34   483.9    5.9      42.017
2014    9       23     0  41    6.34   483.9    5.9      42.001
2014    9       23     0  46    6.34   483.9    5.9      41.987
2014    9       23     0  52    6.34   483.9    5.9      41.974
2014    9       23     0  57    6.33   483.9    5.9      41.963
2014    9       23     1   3    6.33   483.9    5.9      41.953
2014    9       23     1   8    6.33   483.8    5.9      41.945
2014    9       23     1  14    6.33   483.8    5.9      41.938
2014    9       23     1  19    6.33   483.8    5.9      41.932
2014    9       23     1  24    6.33   483.8    5.9      41.926
2014    9       23     1  30    6.33   483.8    5.9      41.921
2014    9       23     1  35    6.32   483.7    5.9      41.917
2014    9       23     1  41    6.32   483.7    5.9      41.914
2014    9       23     1  46    6.32   483.7    5.9      41.913
2014    9       23     1  52    6.32   483.7    5.9      41.912
2014    9       23     1  57    6.32   483.7    5.9      41.912
2014    9       23     2   3    6.32   483.7    5.9      41.913
2014    9       23     2   8    6.32   483.7    5.9      41.915
2014    9       23     2  13    6.32   483.7    5.9      41.917
2014    9       23     2  19    6.32   483.7    5.9      41.918
2014    9       23     2  24    6.32   483.7    5.9      41.919
2014    9       23     2  30    6.32   483.7    5.9      41.919
2014    9       23     2  35    6.32   483.6    5.9      41.918
2014    9       23     2  41    6.32   483.6    5.9      41.917
2014    9       23     2  46    6.32   483.6    5.9      41.915
2014    9       23     2  52    6.32   483.6    5.9      41.913
2014    9       23     2  57    6.32   483.6    5.9      41.911
2014    9       23     3   2    6.32   483.6    5.9      41.909
2014    9       23     3   8    6.32   483.6    5.9      41.906
2014    9       23     3  13    6.32   483.6    5.9      41.903
2014    9       23     3  19    6.32   483.6    5.9      41.900
2014    9       23     3  24    6.32   483.6    5.9      41.897
2014    9       23     3  30    6.32   483.6    5.9      41.893
2014    9       23     3  35    6.32   483.6    5.9      41.889
2014    9       23     3  40    6.32   483.6    5.9      41.886
2014    9       23     3  46    6.32   483.6    5.9      41.882
2014    9       23     3  51    6.32   483.5    5.9      41.878
2014    9       23     3  57    6.32   483.5    5.9      41.874
2014    9       23     4   2    6.32   483.5    5.9      41.870
2014    9       23     4   8    6.32   483.5    5.9      41.867
2014    9       23     4  13    6.32   483.5    5.9      41.863
2014    9       23     4  19    6.32   483.5    5.9      41.859
2014    9       23     4  24    6.32   483.5    5.9      41.855
2014    9       23     4  29    6.32   483.5    5.9      41.852
2014    9       23     4  35    6.32   483.5    5.9      41.848
2014    9       23     4  40    6.32   483.5    5.9      41.845
2014    9       23     4  46    6.32   483.5    5.9      41.841
2014    9       23     4  51    6.32   483.5    5.9      41.838
2014    9       23     4  57    6.32   483.5    5.9      41.835
2014    9       23     5   2    6.32   483.5    5.9      41.832
2014    9       23     5   8    6.32   483.5    5.9      41.829
2014    9       23     5  13    6.32   483.5    5.9      41.826
2014    9       23     5  18    6.32   483.5    5.9      41.823
2014    9       23     5  24    6.32   483.5    5.9      41.820
2014    9       23     5  29    6.32   483.5    5.9      41.817
2014    9       23     5  35    6.32   483.5    5.9      41.815
2014    9       23     5  40    6.32   483.5    5.9      41.812
2014    9       23     5  46    6.32   483.5    5.9      41.809
2014    9       23     5  51    6.32   483.5    5.9      41.807
2014    9       23     5  57    6.32   483.5    5.9      41.804
2014    9       23     6   2    6.32   483.5    5.9      41.802
2014    9       23     6   7    6.32   483.5    5.9      41.799
2014    9       23     6  13    6.32   483.5    5.9      41.797
2014    9       23     6  18    6.32   483.5    5.9      41.795
2014    9       23     6  24    6.32   483.5    5.9      41.792
2014    9       23     6  29    6.32   483.5    5.9      41.790
2014    9       23     6  35    6.32   483.5    5.9      41.788
2014    9       23     6  40    6.32   483.5    5.9      41.785
2014    9       23     6  46    6.32   483.5    5.9      41.783
2014    9       23     6  51    6.32   483.5    5.9      41.780
2014    9       23     6  56    6.32   483.5    5.9      41.778
2014    9       23     7   2    6.32   483.5    5.9      41.776
2014    9       23     7   7    6.32   483.5    5.9      41.773
2014    9       23     7  13    6.32   483.5    5.9      41.771
2014    9       23     7  18    6.32   483.5    5.9      41.769
2014    9       23     7  24    6.32   483.5    5.9      41.766
2014    9       23     7  29    6.32   483.5    5.9      41.764
2014    9       23     7  35    6.32   483.5    5.9      41.761
2014    9       23     7  40    6.32   483.5    5.9      41.759
2014    9       23     7  45    6.32   483.5    5.9      41.757
2014    9       23     7  51    6.32   483.5    5.9      41.755
2014    9       23     7  56    6.32   483.5    5.9      41.753
2014    9       23     8   2    6.32   483.5    5.9      41.751
2014    9       23     8   7    6.32   483.5    5.9      41.749
2014    9       23     8  13    6.32   483.5    5.9      41.748
2014    9       23     8  18    6.32   483.5    5.9      41.746
2014    9       23     8  23    6.32   483.5    5.9      41.745
2014    9       23     8  29    6.33   483.5    5.9      41.744
2014    9       23     8  34    6.33   483.5    5.9      41.744
2014    9       23     8  40    6.33   483.5    5.9      41.743
2014    9       23     8  45    6.33   483.5    5.9      41.743
2014    9       23     8  51    6.33   483.5    5.9      41.743
2014    9       23     8  56    6.33   483.5    5.9      41.744
2014    9       23     9   2    6.33   483.5    5.9      41.745
2014    9       23     9   7    6.33   483.5    5.9      41.746
2014    9       23     9  12    6.33   483.5    5.9      41.748
2014    9       23     9  18    6.33   483.5    5.9      41.749
2014    9       23     9  23    6.34   483.5    5.9      41.752
2014    9       23     9  29    6.34   483.6    5.9      41.754
2014    9       23     9  34    6.34   483.6    5.9      41.758
2014    9       23     9  40    6.34   483.6    5.9      41.761
2014    9       23     9  45    6.34   483.6    5.9      41.765
2014    9       23     9  51    6.34   483.6    5.9      41.769
2014    9       23     9  56    6.34   483.6    5.9      41.774
2014    9       23    10   1    6.34   483.6    5.9      41.779
2014    9       23    10   7    6.35   483.6    5.9      41.785
2014    9       23    10  12    6.35   483.7    5.9      41.792
2014    9       23    10  18    6.35   483.7    5.9      41.799
2014    9       23    10  23    6.35   483.7    5.9      41.806
2014    9       23    10  29    6.35   483.7    5.9      41.814
2014    9       23    10  34    6.35   483.7    5.9      41.822
2014    9       23    10  40    6.36   483.7    5.9      41.830
2014    9       23    10  45    6.36   483.8    5.9      41.838
2014    9       23    10  50    6.36   483.8    5.9      41.846
2014    9       23    10  56    6.36   483.8    5.9      41.853
2014    9       23    11   1    6.36   483.8    5.9      41.861
2014    9       23    11   7    6.36   483.8    5.9      41.868
2014    9       23    11  12    6.36   483.8    5.9      41.876
2014    9       23    11  18    6.37   483.8    5.9      41.883
2014    9       23    11  23    6.37   483.9    5.9      41.890
2014    9       23    11  28    6.37   483.9    5.9      41.898
2014    9       23    11  34    6.37   483.9    5.9      41.905
2014    9       23    11  39    6.37   483.9    5.9      41.913
2014    9       23    11  45    6.37   483.9    5.9      41.920
2014    9       23    11  50    6.38   483.9    5.9      41.928
2014    9       23    11  56    6.38   483.9    5.9      41.936
2014    9       23    12   1    6.38   484.0    5.9      41.944
2014    9       23    12   7    6.38   484.0    5.9      41.952
2014    9       23    12  12    6.38   484.0    5.9      41.960
2014    9       23    12  17    6.38   484.0    5.9      41.968
2014    9       23    12  23    6.39   484.0    5.9      41.977
2014    9       23    12  28    6.39   484.0    5.9      41.986
2014    9       23    12  34    6.39   484.0    5.9      41.996
2014    9       23    12  39    6.39   484.1    5.9      42.005
2014    9       23    12  45    6.39   484.1    5.9      42.016
2014    9       23    12  50    6.40   484.1    5.9      42.027
2014    9       23    12  56    6.40   484.1    5.9      42.038
2014    9       23    13   1    6.40   484.1    5.9      42.051
2014    9       23    13   6    6.40   484.2    5.9      42.064
2014    9       23    13  12    6.41   484.2    5.9      42.077
2014    9       23    13  17    6.41   484.2    5.9      42.092
2014    9       23    13  23    6.41   484.2    5.9      42.107
2014    9       23    13  28    6.41   484.3    5.9      42.124
2014    9       23    13  34    6.42   484.3    5.9      42.142
2014    9       23    13  39    6.42   484.4    5.9      42.161
2014    9       23    13  45    6.42   484.4    5.9      42.182
2014    9       23    13  50    6.42   484.4    5.9      42.204
2014    9       23    13  55    6.43   484.5    5.9      42.225
2014    9       23    14   1    6.43   484.5    5.9      42.248
2014    9       23    14   6    6.43   484.6    5.9      42.272
2014    9       23    14  12    6.44   484.7    6.0      42.296
2014    9       23    14  17    6.44   484.7    6.0      42.321
2014    9       23    14  23    6.44   484.8    6.0      42.347
2014    9       23    14  28    6.44   484.8    6.0      42.374
2014    9       23    14  34    6.45   484.9    6.0      42.401
2014    9       23    14  39    6.45   485.0    6.0      42.428
2014    9       23    14  44    6.45   485.0    6.0      42.453
2014    9       23    14  50    6.45   485.1    6.0      42.478
2014    9       23    14  55    6.46   485.2    6.0      42.502
2014    9       23    15   1    6.46   485.2    6.0      42.525
2014    9       23    15   6    6.46   485.3    6.0      42.547
2014    9       23    15  12    6.46   485.3    6.0      42.568
2014    9       23    15  17    6.47   485.4    6.0      42.589
2014    9       23    15  23    6.47   485.4    6.0      42.610
2014    9       23    15  28    6.47   485.5    6.0      42.630
2014    9       23    15  33    6.47   485.6    6.0      42.649
2014    9       23    15  39    6.48   485.6    6.0      42.668
2014    9       23    15  44    6.48   485.7    6.0      42.687
2014    9       23    15  50    6.48   485.7    6.0      42.706
2014    9       23    15  55    6.48   485.8    6.0      42.725
2014    9       23    16   1    6.49   485.8    6.0      42.743
2014    9       23    16   6    6.49   485.9    6.0      42.762
2014    9       23    16  12    6.49   485.9    6.0      42.780
2014    9       23    16  17    6.50   486.0    6.0      42.798
2014    9       23    16  22    6.50   486.0    6.0      42.817
2014    9       23    16  28    6.50   486.1    6.0      42.835
2014    9       23    16  33    6.50   486.1    6.0      42.854
2014    9       23    16  39    6.51   486.2    6.0      42.873
2014    9       23    16  44    6.51   486.2    6.0      42.892
2014    9       23    16  50    6.51   486.3    6.0      42.911
2014    9       23    16  55    6.51   486.3    6.0      42.931
2014    9       23    17   1    6.52   486.4    6.0      42.951
2014    9       23    17   6    6.52   486.5    6.0      42.971
2014    9       23    17  11    6.52   486.5    6.0      42.992
2014    9       23    17  17    6.53   486.6    6.0      43.014
2014    9       23    17  22    6.53   486.6    6.0      43.035
2014    9       23    17  28    6.53   486.7    6.0      43.057
2014    9       23    17  33    6.53   486.8    6.0      43.079
2014    9       23    17  39    6.54   486.8    6.0      43.101
2014    9       23    17  44    6.54   486.9    6.0      43.123
2014    9       23    17  50    6.54   486.9    6.0      43.145
2014    9       23    17  55    6.55   487.0    6.0      43.166
2014    9       23    18   0    6.55   487.1    6.0      43.188
2014    9       23    18   6    6.55   487.1    6.0      43.210
2014    9       23    18  11    6.55   487.2    6.0      43.232
2014    9       23    18  17    6.56   487.3    6.0      43.254
2014    9       23    18  22    6.56   487.3    6.0      43.276
2014    9       23    18  28    6.56   487.4    6.0      43.299
2014    9       23    18  33    6.57   487.5    6.0      43.322
2014    9       23    18  38    6.57   487.5    6.0      43.345
2014    9       23    18  44    6.57   487.6    6.0      43.368
2014    9       23    18  49    6.58   487.7    6.0      43.391
2014    9       23    18  55    6.58   487.7    6.0      43.415
2014    9       23    19   0    6.58   487.8    6.0      43.439
2014    9       23    19   6    6.59   487.9    6.0      43.463
2014    9       23    19  11    6.59   487.9    6.0      43.488
2014    9       23    19  17    6.59   488.0    6.0      43.513
2014    9       23    19  22    6.60   488.1    6.0      43.539
2014    9       23    19  27    6.60   488.2    6.0      43.565
2014    9       23    19  33    6.60   488.2    6.0      43.591
2014    9       23    19  38    6.61   488.3    6.0      43.618
2014    9       23    19  44    6.61   488.4    6.0      43.645
2014    9       23    19  49    6.61   488.5    6.0      43.674
2014    9       23    19  55    6.62   488.6    6.0      43.703
2014    9       23    20   0    6.62   488.6    6.0      43.733
2014    9       23    20   6    6.62   488.7    6.1      43.764
2014    9       23    20  11    6.63   488.8    6.1      43.796
2014    9       23    20  16    6.63   488.9    6.1      43.829
2014    9       23    20  22    6.63   489.0    6.1      43.863
2014    9       23    20  27    6.64   489.1    6.1      43.898
2014    9       23    20  33    6.64   489.2    6.1      43.935
2014    9       23    20  38    6.65   489.3    6.1      43.974
2014    9       23    20  44    6.65   489.4    6.1      44.015
2014    9       23    20  49    6.65   489.5    6.1      44.059
2014    9       23    20  55    6.66   489.6    6.1      44.105
2014    9       23    21   0    6.66   489.8    6.1      44.152
2014    9       23    21   5    6.67   489.9    6.1      44.201
2014    9       23    21  11    6.67   490.0    6.1      44.252
2014    9       23    21  16    6.68   490.2    6.1      44.306
2014    9       23    21  22    6.68   490.3    6.1      44.362
2014    9       23    21  27    6.68   490.5    6.1      44.421
2014    9       23    21  33    6.69   490.7    6.1      44.482
2014    9       23    21  38    6.69   490.8    6.2      44.546
2014    9       23    21  44    6.70   491.0    6.2      44.611
2014    9       23    21  49    6.70   491.2    6.2      44.675
2014    9       23    21  54    6.70   491.3    6.2      44.737
2014    9       23    22   0    6.71   491.5    6.2      44.798
2014    9       23    22   5    6.71   491.7    6.2      44.857
2014    9       23    22  11    6.71   491.8    6.2      44.915
2014    9       23    22  16    6.72   492.0    6.2      44.972
2014    9       23    22  22    6.72   492.2    6.2      45.028
2014    9       23    22  27    6.72   492.3    6.2      45.082
2014    9       23    22  33    6.73   492.5    6.2      45.136
2014    9       23    22  38    6.73   492.6    6.2      45.189
2014    9       23    22  43    6.73   492.8    6.2      45.242
2014    9       23    22  49    6.74   493.0    6.2      45.294
2014    9       23    22  54    6.74   493.1    6.2      45.345
2014    9       23    23   0    6.74   493.3    6.2      45.397
2014    9       23    23   5    6.75   493.4    6.2      45.448
2014    9       23    23  11    6.75   493.6    6.2      45.498
2014    9       23    23  16    6.75   493.7    6.2      45.549
2014    9       23    23  22    6.76   493.9    6.2      45.600
2014    9       23    23  27    6.76   494.0    6.2      45.651
2014    9       23    23  32    6.76   494.2    6.2      45.702
2014    9       23    23  38    6.77   494.4    6.2      45.752
2014    9       23    23  43    6.77   494.5    6.2      45.803
2014    9       23    23  49    6.77   494.7    6.2      45.854
2014    9       23    23  54    6.78   494.8    6.2      45.904
2014    9       24     0   0    6.78   495.0    6.2      45.954
2014    9       24     0   5    6.78   495.1    6.2      46.004
2014    9       24     0  10    6.79   495.3    6.2      46.052
2014    9       24     0  16    6.79   495.4    6.2      46.100
2014    9       24     0  21    6.79   495.6    6.2      46.148
2014    9       24     0  27    6.80   495.7    6.2      46.195
2014    9       24     0  32    6.80   495.9    6.2      46.241
2014    9       24     0  38    6.80   496.0    6.2      46.287
2014    9       24     0  43    6.81   496.2    6.2      46.332
2014    9       24     0  49    6.81   496.3    6.2      46.377
2014    9       24     0  54    6.81   496.5    6.2      46.421
2014    9       24     0  59    6.82   496.6    6.2      46.464
2014    9       24     1   5    6.82   496.8    6.2      46.507
2014    9       24     1  10    6.82   496.9    6.2      46.550
2014    9       24     1  16    6.83   497.1    6.2      46.591
2014    9       24     1  21    6.83   497.3    6.2      46.633
2014    9       24     1  27    6.83   497.4    6.2      46.674
2014    9       24     1  32    6.84   497.6    6.2      46.714
2014    9       24     1  38    6.84   497.7    6.2      46.754
2014    9       24     1  43    6.84   497.9    6.2      46.793
2014    9       24     1  48    6.85   498.1    6.2      46.832
2014    9       24     1  54    6.85   498.2    6.2      46.870
2014    9       24     1  59    6.85   498.4    6.2      46.908
2014    9       24     2   5    6.86   498.5    6.2      46.945
2014    9       24     2  10    6.86   498.7    6.2      46.982
2014    9       24     2  16    6.86   498.9    6.2      47.019
2014    9       24     2  21    6.87   499.0    6.2      47.055
2014    9       24     2  27    6.87   499.2    6.2      47.090
2014    9       24     2  32    6.87   499.4    6.2      47.126
2014    9       24     2  37    6.88   499.5    6.2      47.160
2014    9       24     2  43    6.88   499.7    6.2      47.195
2014    9       24     2  48    6.88   499.9    6.2      47.229
2014    9       24     2  54    6.89   500.0    6.2      47.263
2014    9       24     2  59    6.89   500.2    6.2      47.297
2014    9       24     3   5    6.89   500.4    6.2      47.331
2014    9       24     3  10    6.90   500.5    6.2      47.364
2014    9       24     3  15    6.90   500.7    6.2      47.398
2014    9       24     3  21    6.90   500.8    6.2      47.431
2014    9       24     3  26    6.91   501.0    6.2      47.464
2014    9       24     3  32    6.91   501.2    6.2      47.497
2014    9       24     3  37    6.91   501.3    6.2      47.530
2014    9       24     3  43    6.91   501.5    6.2      47.564
2014    9       24     3  48    6.92   501.7    6.2      47.597
2014    9       24     3  54    6.92   501.8    6.2      47.631
2014    9       24     3  59    6.92   502.0    6.2      47.666
2014    9       24     4   4    6.93   502.2    6.2      47.702
2014    9       24     4  10    6.93   502.3    6.2      47.737
2014    9       24     4  15    6.93   502.5    6.2      47.774
2014    9       24     4  21    6.94   502.7    6.2      47.812
2014    9       24     4  26    6.94   502.8    6.2      47.851
2014    9       24     4  32    6.94   503.0    6.2      47.892
2014    9       24     4  37    6.95   503.2    6.2      47.934
2014    9       24     4  43    6.95   503.4    6.2      47.979
2014    9       24     4  48    6.95   503.6    6.2      48.027
2014    9       24     4  53    6.95   503.7    6.2      48.077
2014    9       24     4  59    6.96   503.9    6.2      48.128
2014    9       24     5   4    6.96   504.1    6.2      48.182
2014    9       24     5  10    6.96   504.3    6.2      48.236
2014    9       24     5  15    6.97   504.5    6.2      48.292
2014    9       24     5  21    6.97   504.7    6.2      48.350
2014    9       24     5  26    6.98   504.9    6.2      48.410
2014    9       24     5  32    6.98   505.0    6.2      48.471
2014    9       24     5  37    6.98   505.2    6.2      48.535
2014    9       24     5  42    6.99   505.4    6.2      48.601
2014    9       24     5  48    6.99   505.6    6.2      48.670
2014    9       24     5  53    6.99   505.9    6.2      48.742
2014    9       24     5  59    7.00   506.1    6.2      48.816
2014    9       24     6   4    7.00   506.3    6.2      48.894
2014    9       24     6  10    7.01   506.5    6.2      48.976
2014    9       24     6  15    7.01   506.8    6.2      49.062
2014    9       24     6  21    7.01   507.0    6.2      49.152
2014    9       24     6  26    7.02   507.3    6.2      49.243
2014    9       24     6  31    7.02   507.5    6.3      49.335
2014    9       24     6  37    7.03   507.8    6.3      49.428
2014    9       24     6  42    7.03   508.0    6.3      49.525
2014    9       24     6  48    7.04   508.3    6.3      49.625
2014    9       24     6  53    7.04   508.6    6.3      49.728
2014    9       24     6  59    7.04   508.9    6.3      49.832
2014    9       24     7   4    7.05   509.2    6.3      49.939
2014    9       24     7  10    7.05   509.5    6.3      50.048
2014    9       24     7  15    7.05   509.8    6.3      50.156
2014    9       24     7  20    7.06   510.1    6.3      50.261
2014    9       24     7  26    7.06   510.4    6.3      50.362
2014    9       24     7  31    7.06   510.6    6.3      50.461
2014    9       24     7  37    7.07   510.9    6.3      50.556
2014    9       24     7  42    7.07   511.2    6.3      50.649
2014    9       24     7  48    7.07   511.5    6.3      50.739
2014    9       24     7  53    7.08   511.8    6.3      50.827
2014    9       24     7  59    7.08   512.1    6.3      50.912
2014    9       24     8   4    7.08   512.4    6.3      50.994
2014    9       24     8   9    7.08   512.7    6.3      51.075
2014    9       24     8  15    7.09   513.0    6.3      51.153
2014    9       24     8  20    7.09   513.3    6.3      51.229
2014    9       24     8  26    7.09   513.5    6.3      51.303
2014    9       24     8  31    7.09   513.8    6.3      51.376
2014    9       24     8  37    7.10   514.1    6.3      51.446
2014    9       24     8  42    7.10   514.4    6.3      51.515
2014    9       24     8  48    7.10   514.7    6.3      51.582
2014    9       24     8  53    7.10   515.0    6.3      51.647
2014    9       24     8  58    7.11   515.3    6.3      51.710
2014    9       24     9   4    7.11   515.6    6.3      51.772
2014    9       24     9   9    7.11   515.9    6.3      51.832
2014    9       24     9  15    7.11   516.2    6.3      51.890
2014    9       24     9  20    7.11   516.5    6.3      51.946
2014    9       24     9  26    7.12   516.8    6.3      52.001
2014    9       24     9  31    7.12   517.1    6.2      52.053
2014    9       24     9  36    7.12   517.4    6.2      52.104
2014    9       24     9  42    7.12   517.7    6.2      52.153
2014    9       24     9  47    7.13   518.0    6.2      52.199
2014    9       24     9  53    7.13   518.3    6.2      52.244
2014    9       24     9  58    7.13   518.6    6.2      52.287
2014    9       24    10   4    7.13   518.9    6.2      52.328
2014    9       24    10   9    7.13   519.2    6.2      52.367
2014    9       24    10  15    7.13   519.5    6.2      52.404
2014    9       24    10  20    7.14   519.8    6.2      52.439
2014    9       24    10  25    7.14   520.1    6.2      52.473
2014    9       24    10  31    7.14   520.4    6.2      52.505
2014    9       24    10  36    7.14   520.7    6.2      52.535
2014    9       24    10  42    7.14   521.0    6.2      52.563
2014    9       24    10  47    7.14   521.3    6.1      52.590
2014    9       24    10  53    7.15   521.6    6.1      52.616
2014    9       24    10  58    7.15   521.9    6.1      52.640
2014    9       24    11   4    7.15   522.2    6.1      52.664
2014    9       24    11   9    7.15   522.4    6.1      52.686
2014    9       24    11  14    7.15   522.7    6.1      52.708
2014    9       24    11  20    7.15   523.0    6.1      52.729
2014    9       24    11  25    7.16   523.3    6.1      52.750
2014    9       24    11  31    7.16   523.5    6.1      52.770
2014    9       24    11  36    7.16   523.8    6.1      52.790
2014    9       24    11  42    7.16   524.1    6.1      52.810
2014    9       24    11  47    7.16   524.3    6.1      52.829
2014    9       24    11  53    7.16   524.6    6.0      52.849
2014    9       24    11  58    7.17   524.9    6.0      52.869
2014    9       24    12   3    7.17   525.2    6.0      52.890
2014    9       24    12   9    7.17   525.4    6.0      52.911
2014    9       24    12  14    7.17   525.7    6.0      52.932
2014    9       24    12  20    7.17   525.9    6.0      52.955
2014    9       24    12  25    7.17   526.2    6.0      52.979
2014    9       24    12  31    7.18   526.4    6.0      53.004
2014    9       24    12  36    7.18   526.7    6.0      53.031
2014    9       24    12  42    7.18   526.9    6.0      53.060
2014    9       24    12  47    7.18   527.2    6.0      53.090
2014    9       24    12  52    7.19   527.4    6.0      53.124
2014    9       24    12  58    7.19   527.7    6.0      53.161
2014    9       24    13   3    7.19   527.9    6.0      53.203
2014    9       24    13   9    7.19   528.2    6.0      53.248
2014    9       24    13  14    7.20   528.4    6.0      53.298
2014    9       24    13  20    7.20   528.7    6.0      53.355
2014    9       24    13  25    7.20   529.0    6.0      53.417
2014    9       24    13  31    7.21   529.3    6.0      53.482
2014    9       24    13  36    7.21   529.6    6.0      53.550
2014    9       24    13  41    7.21   529.9    6.0      53.622
2014    9       24    13  47    7.21   530.3    6.0      53.697
2014    9       24    13  52    7.22   530.6    6.0      53.779
2014    9       24    13  58    7.22   530.9    6.0      53.864
2014    9       24    14   3    7.22   531.3    6.0      53.953
2014    9       24    14   9    7.22   531.6    6.0      54.048
2014    9       24    14  14    7.23   532.0    6.0      54.147
2014    9       24    14  20    7.23   532.4    6.0      54.248
2014    9       24    14  25    7.23   532.7    6.0      54.350
2014    9       24    14  30    7.23   533.1    6.0      54.452
2014    9       24    14  36    7.23   533.5    6.0      54.554
2014    9       24    14  41    7.24   533.8    6.0      54.655
2014    9       24    14  47    7.24   534.2    6.0      54.756
2014    9       24    14  52    7.24   534.6    6.0      54.856
2014    9       24    14  58    7.24   534.9    6.0      54.958
2014    9       24    15   3    7.24   535.3    6.0      55.060
2014    9       24    15   8    7.24   535.7    6.0      55.163
2014    9       24    15  14    7.24   536.1    6.0      55.266
2014    9       24    15  19    7.24   536.5    6.0      55.369
2014    9       24    15  25    7.25   536.9    6.0      55.470
2014    9       24    15  30    7.25   537.3    6.0      55.568
2014    9       24    15  36    7.25   537.7    6.0      55.663
2014    9       24    15  41    7.25   538.1    6.0      55.754
2014    9       24    15  47    7.25   538.5    6.0      55.841
2014    9       24    15  52    7.25   538.9    6.0      55.925
2014    9       24    15  57    7.25   539.2    6.0      56.005
2014    9       24    16   3    7.25   539.6    6.0      56.082
2014    9       24    16   8    7.25   540.0    6.0      56.156
2014    9       24    16  14    7.25   540.4    6.0      56.226
2014    9       24    16  19    7.25   540.8    5.9      56.294
2014    9       24    16  25    7.25   541.2    5.9      56.358
2014    9       24    16  30    7.25   541.5    5.9      56.420
2014    9       24    16  36    7.25   541.9    5.9      56.480
2014    9       24    16  41    7.25   542.3    5.9      56.537
2014    9       24    16  46    7.25   542.7    5.9      56.591
2014    9       24    16  52    7.25   543.0    5.9      56.644
2014    9       24    16  57    7.25   543.4    5.9      56.694
2014    9       24    17   3    7.25   543.8    5.9      56.742
2014    9       24    17   8    7.25   544.1    5.9      56.788
2014    9       24    17  14    7.25   544.5    5.9      56.832
2014    9       24    17  19    7.24   544.9    5.9      56.874
2014    9       24    17  25    7.24   545.3    5.8      56.913
2014    9       24    17  30    7.24   545.7    5.8      56.950
2014    9       24    17  35    7.24   546.0    5.8      56.985
2014    9       24    17  41    7.24   546.4    5.8      57.018
2014    9       24    17  46    7.24   546.8    5.8      57.048
2014    9       24    17  52    7.24   547.2    5.8      57.077
2014    9       24    17  57    7.24   547.5    5.8      57.103
2014    9       24    18   3    7.24   547.9    5.8      57.128
2014    9       24    18   8    7.24   548.3    5.7      57.150
2014    9       24    18  14    7.24   548.6    5.7      57.170
2014    9       24    18  19    7.24   549.0    5.7      57.188
2014    9       24    18  24    7.24   549.4    5.7      57.205
2014    9       24    18  30    7.23   549.7    5.7      57.221
2014    9       24    18  35    7.23   550.1    5.7      57.235
2014    9       24    18  41    7.23   550.5    5.7      57.248
2014    9       24    18  46    7.23   550.9    5.7      57.261
2014    9       24    18  52    7.23   551.3    5.6      57.273
2014    9       24    18  57    7.23   551.7    5.6      57.284
2014    9       24    19   3    7.23   552.0    5.6      57.294
2014    9       24    19   8    7.23   552.4    5.6      57.302
2014    9       24    19  13    7.23   552.8    5.6      57.310
2014    9       24    19  19    7.22   553.2    5.6      57.318
2014    9       24    19  24    7.22   553.6    5.6      57.328
2014    9       24    19  30    7.22   554.0    5.6      57.338
2014    9       24    19  35    7.22   554.5    5.5      57.348
2014    9       24    19  41    7.22   554.9    5.5      57.355
2014    9       24    19  46    7.22   555.2    5.5      57.361
2014    9       24    19  52    7.21   555.6    5.5      57.367
2014    9       24    19  57    7.21   556.0    5.5      57.370
2014    9       24    20   2    7.21   556.3    5.5      57.372
2014    9       24    20   8    7.21   556.7    5.5      57.372
2014    9       24    20  13    7.21   557.0    5.5      57.374
2014    9       24    20  19    7.20   557.3    5.4      57.378
2014    9       24    20  24    7.20   557.6    5.4      57.383
2014    9       24    20  30    7.20   557.9    5.4      57.390
2014    9       24    20  35    7.20   558.3    5.4      57.400
2014    9       24    20  41    7.20   558.6    5.4      57.411
2014    9       24    20  46    7.20   558.9    5.4      57.425
2014    9       24    20  51    7.19   559.2    5.4      57.441
2014    9       24    20  57    7.19   559.5    5.4      57.461
2014    9       24    21   2    7.19   559.8    5.4      57.483
2014    9       24    21   8    7.19   560.2    5.4      57.508
2014    9       24    21  13    7.19   560.5    5.3      57.536
2014    9       24    21  19    7.19   560.8    5.3      57.567
2014    9       24    21  24    7.18   561.2    5.3      57.603
2014    9       24    21  29    7.18   561.5    5.3      57.642
2014    9       24    21  35    7.18   561.8    5.3      57.685
2014    9       24    21  40    7.18   562.2    5.3      57.731
2014    9       24    21  46    7.18   562.6    5.3      57.780
2014    9       24    21  51    7.17   562.9    5.3      57.833
2014    9       24    21  57    7.17   563.3    5.3      57.886
2014    9       24    22   2    7.17   563.6    5.3      57.939
2014    9       24    22   8    7.17   564.0    5.3      57.992
2014    9       24    22  13    7.17   564.4    5.3      58.047
2014    9       24    22  18    7.16   564.7    5.3      58.104
2014    9       24    22  24    7.16   565.1    5.3      58.161
2014    9       24    22  29    7.16   565.5    5.3      58.220
2014    9       24    22  35    7.16   565.9    5.2      58.279
2014    9       24    22  40    7.15   566.2    5.2      58.336
2014    9       24    22  46    7.15   566.6    5.2      58.389
2014    9       24    22  51    7.15   567.0    5.2      58.439
2014    9       24    22  57    7.14   567.4    5.2      58.485
2014    9       24    23   2    7.14   567.8    5.2      58.527
2014    9       24    23   7    7.14   568.2    5.2      58.565
2014    9       24    23  13    7.13   568.6    5.2      58.599
2014    9       24    23  18    7.13   568.9    5.2      58.629
2014    9       24    23  24    7.12   569.3    5.2      58.655
2014    9       24    23  29    7.12   569.7    5.2      58.678
2014    9       24    23  35    7.11   570.0    5.1      58.697
2014    9       24    23  40    7.11   570.3    5.1      58.712
2014    9       24    23  46    7.11   570.6    5.1      58.725
2014    9       24    23  51    7.10   570.9    5.1      58.734
2014    9       24    23  56    7.10   571.2    5.1      58.742
2014    9       25     0   2    7.09   571.5    5.1      58.749
2014    9       25     0   7    7.09   571.8    5.1      58.755
2014    9       25     0  13    7.08   572.0    5.1      58.761
2014    9       25     0  18    7.08   572.3    5.1      58.767
2014    9       25     0  24    7.08   572.6    5.0      58.773
2014    9       25     0  29    7.07   572.9    5.0      58.779
2014    9       25     0  34    7.07   573.1    5.0      58.786
2014    9       25     0  40    7.07   573.4    5.0      58.794
2014    9       25     0  45    7.06   573.7    5.0      58.803
2014    9       25     0  51    7.06   574.0    5.0      58.811
2014    9       25     0  56    7.05   574.3    5.0      58.819
2014    9       25     1   2    7.05   574.6    5.0      58.826
2014    9       25     1   7    7.05   575.0    5.0      58.832
2014    9       25     1  13    7.04   575.3    5.0      58.835
2014    9       25     1  18    7.04   575.6    4.9      58.836
2014    9       25     1  23    7.03   575.8    4.9      58.835
2014    9       25     1  29    7.03   576.1    4.9      58.832
2014    9       25     1  34    7.03   576.4    4.9      58.827
2014    9       25     1  40    7.02   576.7    4.9      58.822
2014    9       25     1  45    7.02   577.0    4.9      58.815
2014    9       25     1  51    7.01   577.3    4.9      58.806
2014    9       25     1  56    7.01   577.6    4.9      58.797
2014    9       25     2   2    7.01   577.9    4.9      58.788
2014    9       25     2   7    7.00   578.2    4.8      58.778
2014    9       25     2  12    7.00   578.5    4.8      58.768
2014    9       25     2  18    6.99   578.8    4.8      58.756
2014    9       25     2  23    6.99   579.1    4.8      58.744
2014    9       25     2  29    6.99   579.4    4.8      58.734
2014    9       25     2  34    6.98   579.7    4.8      58.724
2014    9       25     2  40    6.98   580.0    4.8      58.718
2014    9       25     2  45    6.97   580.3    4.8      58.713
2014    9       25     2  51    6.97   580.6    4.8      58.708
2014    9       25     2  56    6.96   581.0    4.8      58.703
2014    9       25     3   1    6.96   581.3    4.7      58.698
2014    9       25     3   7    6.96   581.6    4.7      58.692
2014    9       25     3  12    6.95   581.8    4.7      58.684
2014    9       25     3  18    6.95   582.1    4.7      58.675
2014    9       25     3  23    6.94   582.3    4.7      58.665
2014    9       25     3  29    6.94   582.5    4.7      58.655
2014    9       25     3  34    6.93   582.8    4.7      58.646
2014    9       25     3  40    6.93   583.0    4.7      58.637
2014    9       25     3  45    6.92   583.2    4.7      58.629
2014    9       25     3  50    6.92   583.4    4.7      58.623
2014    9       25     3  56    6.92   583.6    4.7      58.617
2014    9       25     4   1    6.91   583.8    4.7      58.610
2014    9       25     4   7    6.91   584.0    4.6      58.604
2014    9       25     4  12    6.90   584.2    4.6      58.599
2014    9       25     4  18    6.90   584.4    4.6      58.596
2014    9       25     4  23    6.90   584.6    4.6      58.594
2014    9       25     4  29    6.89   584.8    4.6      58.593
2014    9       25     4  34    6.89   585.0    4.6      58.596
2014    9       25     4  39    6.88   585.2    4.6      58.601
2014    9       25     4  45    6.88   585.4    4.6      58.609
2014    9       25     4  50    6.88   585.7    4.6      58.619
2014    9       25     4  56    6.87   585.9    4.6      58.630
2014    9       25     5   1    6.87   586.2    4.6      58.642
2014    9       25     5   7    6.86   586.5    4.6      58.654
2014    9       25     5  12    6.86   586.7    4.6      58.665
2014    9       25     5  18    6.86   587.0    4.6      58.674
2014    9       25     5  23    6.85   587.2    4.5      58.681
2014    9       25     5  28    6.85   587.4    4.5      58.686
2014    9       25     5  34    6.84   587.7    4.5      58.690
2014    9       25     5  39    6.84   587.9    4.5      58.692
2014    9       25     5  45    6.83   588.2    4.5      58.694
2014    9       25     5  50    6.83   588.4    4.5      58.694
2014    9       25     5  56    6.82   588.7    4.5      58.693
2014    9       25     6   1    6.82   588.9    4.5      58.692
2014    9       25     6   6    6.82   589.2    4.5      58.689
2014    9       25     6  12    6.81   589.4    4.5      58.685
2014    9       25     6  17    6.81   589.7    4.5      58.680
2014    9       25     6  23    6.80   589.9    4.5      58.673
2014    9       25     6  28    6.80   590.1    4.5      58.665
2014    9       25     6  34    6.79   590.4    4.4      58.655
2014    9       25     6  39    6.79   590.6    4.4      58.644
2014    9       25     6  45    6.78   590.8    4.4      58.632
2014    9       25     6  50    6.77   591.0    4.4      58.617
2014    9       25     6  55    6.77   591.2    4.4      58.601
2014    9       25     7   1    6.76   591.4    4.4      58.584
2014    9       25     7   6    6.76   591.6    4.4      58.566
2014    9       25     7  12    6.75   591.8    4.4      58.548
2014    9       25     7  17    6.75   591.9    4.4      58.530
2014    9       25     7  23    6.75   592.1    4.4      58.514
2014    9       25     7  28    6.74   592.3    4.4      58.498
2014    9       25     7  34    6.74   592.4    4.4      58.484
2014    9       25     7  39    6.73   592.6    4.4      58.472
2014    9       25     7  44    6.73   592.8    4.4      58.461
2014    9       25     7  50    6.72   592.9    4.3      58.453
2014    9       25     7  55    6.72   593.1    4.3      58.447
2014    9       25     8   1    6.71   593.3    4.3      58.443
2014    9       25     8   6    6.71   593.5    4.3      58.440
2014    9       25     8  12    6.71   593.7    4.3      58.437
2014    9       25     8  17    6.70   593.9    4.3      58.434
2014    9       25     8  23    6.70   594.1    4.3      58.430
2014    9       25     8  28    6.69   594.3    4.3      58.425
2014    9       25     8  33    6.69   594.4    4.3      58.420
2014    9       25     8  39    6.68   594.6    4.3      58.414
2014    9       25     8  44    6.68   594.8    4.3      58.407
2014    9       25     8  50    6.68   595.0    4.3      58.400
2014    9       25     8  55    6.67   595.1    4.3      58.393
2014    9       25     9   1    6.67   595.3    4.3      58.386
2014    9       25     9   6    6.66   595.5    4.3      58.379
2014    9       25     9  12    6.66   595.6    4.3      58.373
2014    9       25     9  17    6.66   595.8    4.3      58.366
2014    9       25     9  22    6.65   595.9    4.3      58.360
2014    9       25     9  28    6.65   596.1    4.2      58.353
2014    9       25     9  33    6.64   596.2    4.2      58.346
2014    9       25     9  39    6.64   596.4    4.2      58.339
2014    9       25     9  44    6.64   596.5    4.2      58.333
2014    9       25     9  50    6.63   596.6    4.2      58.327
2014    9       25     9  55    6.63   596.8    4.2      58.322
2014    9       25    10   1    6.63   596.9    4.2      58.318
2014    9       25    10   6    6.62   597.0    4.2      58.315
2014    9       25    10  11    6.62   597.1    4.2      58.312
2014    9       25    10  17    6.62   597.3    4.2      58.310
2014    9       25    10  22    6.61   597.4    4.2      58.308
2014    9       25    10  28    6.61   597.5    4.2      58.308
2014    9       25    10  33    6.61   597.6    4.2      58.309
2014    9       25    10  39    6.60   597.8    4.2      58.310
2014    9       25    10  44    6.60   597.9    4.2      58.312
2014    9       25    10  50    6.60   598.0    4.2      58.314
2014    9       25    10  55    6.59   598.1    4.2      58.316
2014    9       25    11   0    6.59   598.3    4.2      58.319
2014    9       25    11   6    6.59   598.4    4.2      58.322
2014    9       25    11  11    6.58   598.6    4.2      58.324
2014    9       25    11  17    6.58   598.7    4.2      58.325
2014    9       25    11  22    6.58   598.8    4.2      58.325
2014    9       25    11  28    6.57   599.0    4.2      58.325
2014    9       25    11  33    6.57   599.1    4.2      58.325
2014    9       25    11  39    6.57   599.3    4.2      58.324
2014    9       25    11  44    6.56   599.4    4.1      58.324
2014    9       25    11  49    6.56   599.6    4.1      58.322
2014    9       25    11  55    6.56   599.7    4.1      58.321
2014    9       25    12   0    6.55   599.9    4.1      58.319
2014    9       25    12   6    6.55   600.0    4.1      58.317
2014    9       25    12  11    6.55   600.1    4.1      58.314
2014    9       25    12  17    6.54   600.3    4.1      58.312
2014    9       25    12  22    6.54   600.4    4.1      58.309
2014    9       25    12  27    6.54   600.6    4.1      58.306
2014    9       25    12  33    6.53   600.7    4.1      58.303
2014    9       25    12  38    6.53   600.9    4.1      58.300
2014    9       25    12  44    6.53   601.0    4.1      58.297
2014    9       25    12  49    6.52   601.2    4.1      58.294
2014    9       25    12  55    6.52   601.3    4.1      58.291
2014    9       25    13   0    6.52   601.5    4.1      58.288
2014    9       25    13   6    6.51   601.6    4.1      58.286
2014    9       25    13  11    6.51   601.8    4.1      58.284
2014    9       25    13  16    6.51   601.9    4.1      58.282
2014    9       25    13  22    6.50   602.0    4.1      58.280
2014    9       25    13  27    6.50   602.2    4.1      58.278
2014    9       25    13  33    6.50   602.3    4.1      58.277
2014    9       25    13  38    6.49   602.5    4.1      58.275
2014    9       25    13  44    6.49   602.6    4.1      58.274
2014    9       25    13  49    6.49   602.8    4.1      58.272
2014    9       25    13  55    6.48   602.9    4.1      58.271
2014    9       25    14   0    6.48   603.1    4.1      58.270
2014    9       25    14   5    6.48   603.2    4.0      58.269
2014    9       25    14  11    6.47   603.3    4.0      58.268
2014    9       25    14  16    6.47   603.5    4.0      58.267
2014    9       25    14  22    6.47   603.6    4.0      58.267
2014    9       25    14  27    6.46   603.7    4.0      58.267
2014    9       25    14  33    6.46   603.9    4.0      58.267
2014    9       25    14  38    6.46   604.0    4.0      58.268
2014    9       25    14  43    6.45   604.1    4.0      58.269
2014    9       25    14  49    6.45   604.3    4.0      58.271
2014    9       25    14  54    6.45   604.4    4.0      58.273
2014    9       25    15   0    6.44   604.6    4.0      58.276
2014    9       25    15   5    6.44   604.7    4.0      58.279
2014    9       25    15  11    6.44   604.8    4.0      58.282
2014    9       25    15  16    6.43   604.9    4.0      58.286
2014    9       25    15  22    6.43   605.1    4.0      58.291
2014    9       25    15  27    6.43   605.2    4.0      58.296
2014    9       25    15  32    6.43   605.3    4.0      58.302
2014    9       25    15  38    6.42   605.5    4.0      58.308
2014    9       25    15  43    6.42   605.6    4.0      58.314
2014    9       25    15  49    6.42   605.7    4.0      58.321
2014    9       25    15  54    6.41   605.9    4.0      58.327
2014    9       25    16   0    6.41   606.0    4.0      58.332
2014    9       25    16   5    6.41   606.1    4.0      58.337
2014    9       25    16  11    6.41   606.3    4.0      58.343
2014    9       25    16  16    6.40   606.4    4.0      58.347
2014    9       25    16  21    6.40   606.5    4.0      58.352
2014    9       25    16  27    6.40   606.7    4.0      58.356
2014    9       25    16  32    6.40   606.8    4.0      58.360
2014    9       25    16  38    6.39   606.9    4.0      58.363
2014    9       25    16  43    6.39   607.0    4.0      58.365
2014    9       25    16  49    6.39   607.2    4.0      58.367
2014    9       25    16  54    6.38   607.3    3.9      58.369
2014    9       25    17   0    6.38   607.4    3.9      58.370
2014    9       25    17   5    6.38   607.6    3.9      58.370
2014    9       25    17  10    6.38   607.7    3.9      58.370
2014    9       25    17  16    6.37   607.8    3.9      58.370
2014    9       25    17  21    6.37   607.9    3.9      58.369
2014    9       25    17  27    6.37   608.1    3.9      58.368
2014    9       25    17  32    6.37   608.2    3.9      58.367
2014    9       25    17  38    6.36   608.3    3.9      58.365
2014    9       25    17  43    6.36   608.4    3.9      58.363
2014    9       25    17  49    6.36   608.6    3.9      58.361
2014    9       25    17  54    6.36   608.7    3.9      58.358
2014    9       25    17  59    6.35   608.8    3.9      58.356
2014    9       25    18   5    6.35   608.9    3.9      58.353
2014    9       25    18  10    6.35   609.0    3.9      58.350
2014    9       25    18  16    6.35   609.2    3.9      58.347
2014    9       25    18  21    6.34   609.3    3.9      58.344
2014    9       25    18  27    6.34   609.4    3.9      58.341
2014    9       25    18  32    6.34   609.5    3.9      58.338
2014    9       25    18  38    6.34   609.6    3.9      58.335
2014    9       25    18  43    6.33   609.8    3.9      58.332
2014    9       25    18  48    6.33   609.9    3.9      58.330
2014    9       25    18  54    6.33   610.0    3.9      58.327
2014    9       25    18  59    6.33   610.1    3.9      58.325
2014    9       25    19   5    6.32   610.2    3.9      58.323
2014    9       25    19  10    6.32   610.3    3.9      58.321
2014    9       25    19  16    6.32   610.5    3.9      58.319
2014    9       25    19  21    6.31   610.6    3.9      58.318
2014    9       25    19  27    6.31   610.7    3.9      58.317
2014    9       25    19  32    6.31   610.8    3.8      58.317
2014    9       25    19  37    6.31   610.9    3.8      58.317
2014    9       25    19  43    6.30   611.0    3.8      58.317
2014    9       25    19  48    6.30   611.1    3.8      58.317
2014    9       25    19  54    6.30   611.3    3.8      58.318
2014    9       25    19  59    6.30   611.4    3.8      58.318
2014    9       25    20   5    6.29   611.5    3.8      58.319
2014    9       25    20  10    6.29   611.6    3.8      58.321
2014    9       25    20  16    6.29   611.7    3.8      58.322
2014    9       25    20  21    6.29   611.8    3.8      58.324
2014    9       25    20  26    6.28   611.9    3.8      58.326
2014    9       25    20  32    6.28   612.0    3.8      58.328
2014    9       25    20  37    6.28   612.2    3.8      58.331
2014    9       25    20  43    6.28   612.3    3.8      58.333
2014    9       25    20  48    6.27   612.4    3.8      58.336
2014    9       25    20  54    6.27   612.5    3.8      58.340
2014    9       25    20  59    6.27   612.6    3.8      58.343
2014    9       25    21   4    6.27   612.7    3.8      58.346
2014    9       25    21  10    6.26   612.8    3.8      58.350
2014    9       25    21  15    6.26   612.9    3.8      58.354
2014    9       25    21  21    6.26   613.0    3.8      58.358
2014    9       25    21  26    6.26   613.2    3.8      58.362
2014    9       25    21  32    6.26   613.3    3.8      58.366
2014    9       25    21  37    6.25   613.4    3.8      58.370
2014    9       25    21  43    6.25   613.5    3.8      58.375
2014    9       25    21  48    6.25   613.6    3.8      58.379
2014    9       25    21  53    6.25   613.7    3.8      58.384
2014    9       25    21  59    6.24   613.8    3.8      58.388
2014    9       25    22   4    6.24   613.9    3.8      58.393
2014    9       25    22  10    6.24   614.0    3.8      58.397
2014    9       25    22  15    6.24   614.1    3.8      58.401
2014    9       25    22  21    6.23   614.3    3.8      58.405
2014    9       25    22  26    6.23   614.4    3.8      58.409
2014    9       25    22  32    6.23   614.5    3.8      58.413
2014    9       25    22  37    6.23   614.6    3.8      58.417
2014    9       25    22  42    6.22   614.7    3.8      58.421
2014    9       25    22  48    6.22   614.8    3.8      58.425
2014    9       25    22  53    6.22   614.9    3.8      58.429
2014    9       25    22  59    6.22   615.0    3.8      58.432
2014    9       25    23   4    6.22   615.1    3.8      58.436
2014    9       25    23  10    6.21   615.2    3.7      58.440
2014    9       25    23  15    6.21   615.3    3.7      58.444
2014    9       25    23  21    6.21   615.4    3.7      58.447
2014    9       25    23  26    6.21   615.6    3.7      58.451
2014    9       25    23  31    6.20   615.7    3.7      58.455
2014    9       25    23  37    6.20   615.8    3.7      58.458
2014    9       25    23  42    6.20   615.9    3.7      58.462
2014    9       25    23  48    6.20   616.0    3.7      58.465
2014    9       25    23  53    6.20   616.1    3.7      58.468
2014    9       25    23  59    6.19   616.2    3.7      58.471
2014    9       26     0   4    6.19   616.3    3.7      58.474
2014    9       26     0  10    6.19   616.4    3.7      58.476
2014    9       26     0  15    6.19   616.5    3.7      58.479
2014    9       26     0  20    6.19   616.6    3.7      58.482
2014    9       26     0  26    6.18   616.7    3.7      58.484
2014    9       26     0  31    6.18   616.8    3.7      58.487
2014    9       26     0  37    6.18   616.9    3.7      58.489
2014    9       26     0  42    6.18   617.0    3.7      58.492
2014    9       26     0  48    6.17   617.1    3.7      58.495
2014    9       26     0  53    6.17   617.2    3.7      58.497
2014    9       26     0  59    6.17   617.3    3.7      58.500
2014    9       26     1   4    6.17   617.4    3.7      58.503
2014    9       26     1   9    6.17   617.5    3.7      58.505
2014    9       26     1  15    6.16   617.6    3.7      58.508
2014    9       26     1  20    6.16   617.7    3.7      58.511
2014    9       26     1  26    6.16   617.8    3.7      58.514
2014    9       26     1  31    6.16   617.9    3.7      58.517
2014    9       26     1  37    6.16   618.0    3.7      58.520
2014    9       26     1  42    6.15   618.1    3.7      58.523
2014    9       26     1  48    6.15   618.2    3.7      58.526
2014    9       26     1  53    6.15   618.3    3.7      58.529
2014    9       26     1  58    6.15   618.4    3.7      58.532
2014    9       26     2   4    6.14   618.5    3.7      58.536
2014    9       26     2   9    6.14   618.6    3.7      58.539
2014    9       26     2  15    6.14   618.7    3.7      58.543
2014    9       26     2  20    6.14   618.7    3.7      58.546
2014    9       26     2  26    6.14   618.8    3.7      58.550
2014    9       26     2  31    6.13   618.9    3.7      58.554
2014    9       26     2  36    6.13   619.0    3.7      58.558
2014    9       26     2  42    6.13   619.1    3.7      58.562
2014    9       26     2  47    6.13   619.2    3.6      58.566
2014    9       26     2  53    6.13   619.3    3.6      58.570
2014    9       26     2  58    6.12   619.4    3.6      58.575
2014    9       26     3   4    6.12   619.5    3.6      58.579
2014    9       26     3   9    6.12   619.6    3.6      58.584
2014    9       26     3  15    6.12   619.7    3.6      58.588
2014    9       26     3  20    6.12   619.8    3.6      58.593
2014    9       26     3  25    6.11   619.8    3.6      58.597
2014    9       26     3  31    6.11   619.9    3.6      58.602
2014    9       26     3  36    6.11   620.0    3.6      58.606
2014    9       26     3  42    6.11   620.1    3.6      58.611
2014    9       26     3  47    6.11   620.2    3.6      58.615
2014    9       26     3  53    6.10   620.3    3.6      58.620
2014    9       26     3  58    6.10   620.4    3.6      58.624
2014    9       26     4   4    6.10   620.5    3.6      58.629
2014    9       26     4   9    6.10   620.6    3.6      58.633
2014    9       26     4  14    6.10   620.6    3.6      58.637
2014    9       26     4  20    6.09   620.7    3.6      58.642
2014    9       26     4  25    6.09   620.8    3.6      58.646
2014    9       26     4  31    6.09   620.9    3.6      58.650
2014    9       26     4  36    6.09   621.0    3.6      58.655
2014    9       26     4  42    6.09   621.1    3.6      58.659
2014    9       26     4  47    6.08   621.2    3.6      58.663
2014    9       26     4  53    6.08   621.2    3.6      58.668
2014    9       26     4  58    6.08   621.3    3.6      58.672
2014    9       26     5   3    6.08   621.4    3.6      58.677
2014    9       26     5   9    6.08   621.5    3.6      58.681
2014    9       26     5  14    6.08   621.6    3.6      58.686
2014    9       26     5  20    6.07   621.7    3.6      58.690
2014    9       26     5  25    6.07   621.8    3.6      58.695
2014    9       26     5  31    6.07   621.8    3.6      58.700
2014    9       26     5  36    6.07   621.9    3.6      58.704
2014    9       26     5  41    6.07   622.0    3.6      58.709
2014    9       26     5  47    6.06   622.1    3.6      58.714
2014    9       26     5  52    6.06   622.2    3.6      58.719
2014    9       26     5  58    6.06   622.3    3.6      58.724
2014    9       26     6   3    6.06   622.3    3.6      58.729
2014    9       26     6   9    6.06   622.4    3.6      58.734
2014    9       26     6  14    6.05   622.5    3.6      58.740
2014    9       26     6  20    6.05   622.6    3.6      58.745
2014    9       26     6  25    6.05   622.7    3.6      58.751
2014    9       26     6  30    6.05   622.7    3.6      58.756
2014    9       26     6  36    6.05   622.8    3.6      58.762
2014    9       26     6  41    6.05   622.9    3.6      58.767
2014    9       26     6  47    6.04   623.0    3.6      58.773
2014    9       26     6  52    6.04   623.1    3.6      58.779
2014    9       26     6  58    6.04   623.1    3.6      58.785
2014    9       26     7   3    6.04   623.2    3.6      58.791
2014    9       26     7   9    6.04   623.3    3.6      58.797
2014    9       26     7  14    6.03   623.4    3.5      58.803
2014    9       26     7  19    6.03   623.4    3.5      58.810
2014    9       26     7  25    6.03   623.5    3.5      58.816
2014    9       26     7  30    6.03   623.6    3.5      58.822
2014    9       26     7  36    6.03   623.7    3.5      58.828
2014    9       26     7  41    6.03   623.7    3.5      58.835
2014    9       26     7  47    6.02   623.8    3.5      58.841
2014    9       26     7  52    6.02   623.9    3.5      58.848
2014    9       26     7  58    6.02   624.0    3.5      58.854
2014    9       26     8   3    6.02   624.0    3.5      58.860
2014    9       26     8   8    6.02   624.1    3.5      58.867
2014    9       26     8  14    6.01   624.2    3.5      58.873
2014    9       26     8  19    6.01   624.3    3.5      58.880
2014    9       26     8  25    6.01   624.3    3.5      58.886
2014    9       26     8  30    6.01   624.4    3.5      58.892
2014    9       26     8  36    6.01   624.5    3.5      58.898
2014    9       26     8  41    6.01   624.5    3.5      58.904
2014    9       26     8  47    6.00   624.6    3.5      58.911
2014    9       26     8  52    6.00   624.7    3.5      58.917
2014    9       26     8  57    6.00   624.8    3.5      58.923
2014    9       26     9   3    6.00   624.8    3.5      58.929
2014    9       26     9   8    6.00   624.9    3.5      58.935
2014    9       26     9  14    6.00   625.0    3.5      58.941
2014    9       26     9  19    5.99   625.0    3.5      58.947
2014    9       26     9  25    5.99   625.1    3.5      58.953
2014    9       26     9  30    5.99   625.2    3.5      58.959
2014    9       26     9  36    5.99   625.2    3.5      58.964
2014    9       26     9  41    5.99   625.3    3.5      58.970
2014    9       26     9  46    5.99   625.4    3.5      58.976
2014    9       26     9  52    5.98   625.4    3.5      58.982
2014    9       26     9  57    5.98   625.5    3.5      58.987
2014    9       26    10   3    5.98   625.6    3.5      58.993
2014    9       26    10   8    5.98   625.6    3.5      58.999
2014    9       26    10  14    5.98   625.7    3.5      59.005
2014    9       26    10  19    5.98   625.8    3.5      59.010
2014    9       26    10  25    5.98   625.8    3.5      59.016
2014    9       26    10  30    5.97   625.9    3.5      59.021
2014    9       26    10  35    5.97   626.0    3.5      59.027
2014    9       26    10  41    5.97   626.0    3.5      59.032
2014    9       26    10  46    5.97   626.1    3.5      59.038
2014    9       26    10  52    5.97   626.2    3.5      59.043
2014    9       26    10  57    5.97   626.2    3.5      59.049
2014    9       26    11   3    5.96   626.3    3.5      59.054
2014    9       26    11   8    5.96   626.3    3.5      59.060
2014    9       26    11  13    5.96   626.4    3.5      59.065
2014    9       26    11  19    5.96   626.5    3.5      59.070
2014    9       26    11  24    5.96   626.5    3.5      59.076
2014    9       26    11  30    5.96   626.6    3.5      59.081
2014    9       26    11  35    5.95   626.7    3.5      59.086
2014    9       26    11  41    5.95   626.7    3.5      59.092
2014    9       26    11  46    5.95   626.8    3.5      59.097
2014    9       26    11  52    5.95   626.8    3.5      59.102
2014    9       26    11  57    5.95   626.9    3.5      59.107
2014    9       26    12   2    5.95   627.0    3.5      59.112
2014    9       26    12   8    5.94   627.0    3.5      59.117
2014    9       26    12  13    5.94   627.1    3.5      59.123
2014    9       26    12  19    5.94   627.1    3.5      59.128
2014    9       26    12  24    5.94   627.2    3.5      59.133
2014    9       26    12  30    5.94   627.3    3.5      59.138
2014    9       26    12  35    5.94   627.3    3.5      59.143
2014    9       26    12  41    5.94   627.4    3.5      59.149
2014    9       26    12  46    5.93   627.4    3.5      59.154
2014    9       26    12  51    5.93   627.5    3.4      59.159
2014    9       26    12  57    5.93   627.5    3.4      59.164
2014    9       26    13   2    5.93   627.6    3.4      59.169
2014    9       26    13   8    5.93   627.6    3.4      59.175
2014    9       26    13  13    5.93   627.7    3.4      59.180
2014    9       26    13  19    5.93   627.8    3.4      59.185
2014    9       26    13  24    5.92   627.8    3.4      59.191
2014    9       26    13  30    5.92   627.9    3.4      59.196
2014    9       26    13  35    5.92   627.9    3.4      59.202
2014    9       26    13  40    5.92   628.0    3.4      59.207
2014    9       26    13  46    5.92   628.0    3.4      59.212
2014    9       26    13  51    5.92   628.1    3.4      59.218
2014    9       26    13  57    5.91   628.1    3.4      59.224
2014    9       26    14   2    5.91   628.2    3.4      59.229
2014    9       26    14   8    5.91   628.2    3.4      59.235
2014    9       26    14  13    5.91   628.3    3.4      59.240
2014    9       26    14  19    5.91   628.3    3.4      59.246
2014    9       26    14  24    5.91   628.4    3.4      59.252
2014    9       26    14  29    5.91   628.4    3.4      59.258
2014    9       26    14  35    5.91   628.5    3.4      59.264
2014    9       26    14  40    5.90   628.5    3.4      59.269
2014    9       26    14  46    5.90   628.6    3.4      59.275
2014    9       26    14  51    5.90   628.6    3.4      59.281
2014    9       26    14  57    5.90   628.7    3.4      59.287
2014    9       26    15   2    5.90   628.7    3.4      59.293
2014    9       26    15   8    5.90   628.8    3.4      59.299
2014    9       26    15  13    5.90   628.8    3.4      59.305
2014    9       26    15  18    5.89   628.9    3.4      59.311
2014    9       26    15  24    5.89   628.9    3.4      59.316
2014    9       26    15  29    5.89   628.9    3.4      59.322
2014    9       26    15  35    5.89   629.0    3.4      59.328
2014    9       26    15  40    5.89   629.0    3.4      59.334
2014    9       26    15  46    5.89   629.1    3.4      59.340
2014    9       26    15  51    5.89   629.1    3.4      59.346
2014    9       26    15  57    5.89   629.2    3.4      59.352
2014    9       26    16   2    5.88   629.2    3.4      59.358
2014    9       26    16   7    5.88   629.3    3.4      59.364
2014    9       26    16  13    5.88   629.3    3.4      59.370
2014    9       26    16  18    5.88   629.3    3.4      59.375
2014    9       26    16  24    5.88   629.4    3.4      59.381
2014    9       26    16  29    5.88   629.4    3.4      59.387
2014    9       26    16  35    5.88   629.5    3.4      59.392
2014    9       26    16  40    5.88   629.5    3.4      59.398
2014    9       26    16  45    5.87   629.5    3.4      59.404
2014    9       26    16  51    5.87   629.6    3.4      59.409
2014    9       26    16  56    5.87   629.6    3.4      59.415
2014    9       26    17   2    5.87   629.7    3.4      59.420
2014    9       26    17   7    5.87   629.7    3.4      59.426
2014    9       26    17  13    5.87   629.7    3.4      59.431
2014    9       26    17  18    5.87   629.8    3.4      59.437
2014    9       26    17  24    5.87   629.8    3.4      59.442
2014    9       26    17  29    5.86   629.9    3.4      59.447
2014    9       26    17  34    5.86   629.9    3.4      59.453
2014    9       26    17  40    5.86   629.9    3.4      59.458
2014    9       26    17  45    5.86   630.0    3.4      59.463
2014    9       26    17  51    5.86   630.0    3.4      59.468
2014    9       26    17  56    5.86   630.1    3.4      59.473
2014    9       26    18   2    5.86   630.1    3.4      59.478
2014    9       26    18   7    5.86   630.1    3.4      59.483
2014    9       26    18  13    5.85   630.2    3.4      59.488
2014    9       26    18  18    5.85   630.2    3.4      59.493
2014    9       26    18  23    5.85   630.2    3.4      59.498
2014    9       26    18  29    5.85   630.3    3.4      59.502
2014    9       26    18  34    5.85   630.3    3.4      59.507
2014    9       26    18  40    5.85   630.3    3.4      59.512
2014    9       26    18  45    5.85   630.4    3.4      59.517
2014    9       26    18  51    5.85   630.4    3.4      59.522
2014    9       26    18  56    5.85   630.5    3.4      59.526
2014    9       26    19   2    5.84   630.5    3.4      59.531
2014    9       26    19   7    5.84   630.5    3.4      59.536
2014    9       26    19  12    5.84   630.6    3.4      59.540
2014    9       26    19  18    5.84   630.6    3.4      59.545
2014    9       26    19  23    5.84   630.6    3.4      59.550
2014    9       26    19  29    5.84   630.7    3.4      59.554
2014    9       26    19  34    5.84   630.7    3.4      59.559
2014    9       26    19  40    5.84   630.7    3.4      59.564
2014    9       26    19  45    5.84   630.7    3.4      59.568
2014    9       26    19  50    5.83   630.8    3.4      59.573
2014    9       26    19  56    5.83   630.8    3.4      59.578
2014    9       26    20   1    5.83   630.8    3.4      59.582
2014    9       26    20   7    5.83   630.9    3.4      59.587
2014    9       26    20  12    5.83   630.9    3.4      59.592
2014    9       26    20  18    5.83   630.9    3.4      59.596
2014    9       26    20  23    5.83   631.0    3.4      59.601
2014    9       26    20  29    5.83   631.0    3.4      59.606
2014    9       26    20  34    5.83   631.0    3.4      59.611
2014    9       26    20  39    5.83   631.0    3.4      59.615
2014    9       26    20  45    5.82   631.1    3.4      59.620
2014    9       26    20  50    5.82   631.1    3.4      59.625
2014    9       26    20  56    5.82   631.1    3.4      59.630
2014    9       26    21   1    5.82   631.2    3.4      59.635
2014    9       26    21   7    5.82   631.2    3.4      59.640
2014    9       26    21  12    5.82   631.2    3.4      59.645
2014    9       26    21  18    5.82   631.2    3.4      59.649
2014    9       26    21  23    5.82   631.3    3.4      59.654
2014    9       26    21  28    5.82   631.3    3.4      59.659
2014    9       26    21  34    5.82   631.3    3.4      59.664
2014    9       26    21  39    5.81   631.3    3.3      59.669
2014    9       26    21  45    5.81   631.4    3.3      59.674
2014    9       26    21  50    5.81   631.4    3.3      59.679
2014    9       26    21  56    5.81   631.4    3.3      59.684
2014    9       26    22   1    5.81   631.4    3.3      59.690
2014    9       26    22   7    5.81   631.5    3.3      59.695
2014    9       26    22  12    5.81   631.5    3.3      59.700
2014    9       26    22  17    5.81   631.5    3.3      59.705
2014    9       26    22  23    5.81   631.5    3.3      59.710
2014    9       26    22  28    5.81   631.6    3.3      59.715
2014    9       26    22  34    5.81   631.6    3.3      59.720
2014    9       26    22  39    5.80   631.6    3.3      59.725
2014    9       26    22  45    5.80   631.6    3.3      59.731
2014    9       26    22  50    5.80   631.7    3.3      59.736
2014    9       26    22  56    5.80   631.7    3.3      59.741
2014    9       26    23   1    5.80   631.7    3.3      59.746
2014    9       26    23   6    5.80   631.7    3.3      59.752
2014    9       26    23  12    5.80   631.7    3.3      59.757
2014    9       26    23  17    5.80   631.8    3.3      59.762
2014    9       26    23  23    5.80   631.8    3.3      59.767
2014    9       26    23  28    5.80   631.8    3.3      59.773
2014    9       26    23  34    5.80   631.8    3.3      59.778
2014    9       26    23  39    5.80   631.9    3.3      59.783
2014    9       26    23  45    5.79   631.9    3.3      59.788
2014    9       26    23  50    5.79   631.9    3.3      59.793
2014    9       26    23  55    5.79   631.9    3.3      59.798
2014    9       27     0   1    5.79   631.9    3.3      59.804
