year    month   day   hour  minute  B_enl V_enl   n_enl       T_enl
[year] [month] [day] [hour][minute] [nT]  [km/s]  [cm-3]      [kK]
2014    9        5     0   1    3.78   442.2    4.8      36.425
2014    9        5     0   6    3.78   442.1    4.8      36.394
2014    9        5     0  12    3.78   441.9    4.8      36.364
2014    9        5     0  18    3.78   441.7    4.8      36.334
2014    9        5     0  23    3.78   441.5    4.8      36.303
2014    9        5     0  29    3.78   441.3    4.8      36.273
2014    9        5     0  35    3.78   441.1    4.8      36.244
2014    9        5     0  40    3.78   441.0    4.8      36.214
2014    9        5     0  46    3.78   440.8    4.8      36.185
2014    9        5     0  52    3.78   440.6    4.8      36.156
2014    9        5     0  57    3.78   440.4    4.8      36.127
2014    9        5     1   3    3.78   440.2    4.8      36.098
2014    9        5     1   9    3.78   440.0    4.8      36.069
2014    9        5     1  15    3.78   439.9    4.8      36.041
2014    9        5     1  20    3.78   439.7    4.9      36.013
2014    9        5     1  26    3.78   439.5    4.9      35.985
2014    9        5     1  32    3.78   439.3    4.9      35.957
2014    9        5     1  37    3.78   439.1    4.9      35.930
2014    9        5     1  43    3.78   438.9    4.9      35.902
2014    9        5     1  49    3.78   438.8    4.9      35.875
2014    9        5     1  54    3.78   438.6    4.9      35.848
2014    9        5     2   0    3.78   438.4    4.9      35.821
2014    9        5     2   6    3.78   438.2    4.9      35.795
2014    9        5     2  11    3.78   438.0    4.9      35.768
2014    9        5     2  17    3.78   437.9    4.9      35.742
2014    9        5     2  23    3.78   437.7    4.9      35.715
2014    9        5     2  28    3.78   437.5    4.9      35.689
2014    9        5     2  34    3.78   437.3    4.9      35.663
2014    9        5     2  40    3.78   437.1    4.9      35.637
2014    9        5     2  46    3.78   436.9    4.9      35.610
2014    9        5     2  51    3.78   436.8    4.9      35.584
2014    9        5     2  57    3.78   436.6    4.9      35.558
2014    9        5     3   3    3.78   436.4    4.9      35.532
2014    9        5     3   8    3.78   436.2    4.9      35.505
2014    9        5     3  14    3.78   436.0    4.9      35.478
2014    9        5     3  20    3.78   435.9    4.9      35.452
2014    9        5     3  25    3.78   435.7    4.9      35.425
2014    9        5     3  31    3.78   435.5    4.9      35.397
2014    9        5     3  37    3.78   435.3    5.0      35.370
2014    9        5     3  42    3.78   435.1    5.0      35.342
2014    9        5     3  48    3.78   434.9    5.0      35.314
2014    9        5     3  54    3.78   434.8    5.0      35.286
2014    9        5     3  59    3.78   434.6    5.0      35.258
2014    9        5     4   5    3.78   434.4    5.0      35.230
2014    9        5     4  11    3.78   434.2    5.0      35.201
2014    9        5     4  17    3.78   434.0    5.0      35.172
2014    9        5     4  22    3.78   433.8    5.0      35.143
2014    9        5     4  28    3.78   433.7    5.0      35.114
2014    9        5     4  34    3.78   433.5    5.0      35.085
2014    9        5     4  39    3.78   433.3    5.0      35.056
2014    9        5     4  45    3.78   433.1    5.0      35.026
2014    9        5     4  51    3.78   432.9    5.0      34.997
2014    9        5     4  56    3.78   432.7    5.0      34.967
2014    9        5     5   2    3.78   432.6    5.0      34.937
2014    9        5     5   8    3.78   432.4    5.0      34.907
2014    9        5     5  13    3.78   432.2    5.0      34.877
2014    9        5     5  19    3.78   432.0    5.0      34.847
2014    9        5     5  25    3.78   431.8    5.0      34.817
2014    9        5     5  30    3.78   431.6    5.0      34.786
2014    9        5     5  36    3.78   431.4    5.0      34.756
2014    9        5     5  42    3.78   431.3    5.0      34.726
2014    9        5     5  48    3.78   431.1    5.0      34.695
2014    9        5     5  53    3.78   430.9    5.0      34.665
2014    9        5     5  59    3.78   430.7    5.0      34.634
2014    9        5     6   5    3.78   430.5    5.0      34.604
2014    9        5     6  10    3.78   430.3    5.0      34.573
2014    9        5     6  16    3.78   430.1    5.0      34.543
2014    9        5     6  22    3.78   430.0    5.0      34.513
2014    9        5     6  27    3.78   429.8    5.1      34.482
2014    9        5     6  33    3.78   429.6    5.1      34.452
2014    9        5     6  39    3.78   429.4    5.1      34.422
2014    9        5     6  44    3.78   429.2    5.1      34.392
2014    9        5     6  50    3.78   429.0    5.1      34.363
2014    9        5     6  56    3.78   428.8    5.1      34.333
2014    9        5     7   2    3.78   428.6    5.1      34.304
2014    9        5     7   7    3.78   428.5    5.1      34.275
2014    9        5     7  13    3.78   428.3    5.1      34.246
2014    9        5     7  19    3.78   428.1    5.1      34.218
2014    9        5     7  24    3.78   427.9    5.1      34.189
2014    9        5     7  30    3.78   427.7    5.1      34.161
2014    9        5     7  36    3.78   427.5    5.1      34.133
2014    9        5     7  41    3.78   427.3    5.1      34.106
2014    9        5     7  47    3.78   427.2    5.1      34.079
2014    9        5     7  53    3.78   427.0    5.1      34.052
2014    9        5     7  58    3.78   426.8    5.1      34.025
2014    9        5     8   4    3.78   426.6    5.1      33.999
2014    9        5     8  10    3.78   426.4    5.1      33.973
2014    9        5     8  15    3.78   426.2    5.1      33.947
2014    9        5     8  21    3.78   426.0    5.1      33.922
2014    9        5     8  27    3.78   425.9    5.1      33.896
2014    9        5     8  33    3.78   425.7    5.1      33.871
2014    9        5     8  38    3.78   425.5    5.1      33.847
2014    9        5     8  44    3.78   425.3    5.1      33.823
2014    9        5     8  50    3.78   425.1    5.1      33.799
2014    9        5     8  55    3.78   424.9    5.1      33.775
2014    9        5     9   1    3.78   424.8    5.1      33.751
2014    9        5     9   7    3.78   424.6    5.2      33.728
2014    9        5     9  12    3.78   424.4    5.2      33.705
2014    9        5     9  18    3.78   424.2    5.2      33.682
2014    9        5     9  24    3.78   424.0    5.2      33.659
2014    9        5     9  29    3.78   423.9    5.2      33.637
2014    9        5     9  35    3.78   423.7    5.2      33.614
2014    9        5     9  41    3.78   423.5    5.2      33.592
2014    9        5     9  46    3.79   423.3    5.2      33.570
2014    9        5     9  52    3.79   423.1    5.2      33.548
2014    9        5     9  58    3.79   423.0    5.2      33.526
2014    9        5    10   4    3.79   422.8    5.2      33.504
2014    9        5    10   9    3.79   422.6    5.2      33.482
2014    9        5    10  15    3.79   422.4    5.2      33.460
2014    9        5    10  21    3.79   422.3    5.2      33.438
2014    9        5    10  26    3.79   422.1    5.2      33.416
2014    9        5    10  32    3.79   421.9    5.2      33.395
2014    9        5    10  38    3.79   421.7    5.2      33.373
2014    9        5    10  43    3.79   421.5    5.2      33.351
2014    9        5    10  49    3.79   421.4    5.2      33.329
2014    9        5    10  55    3.79   421.2    5.2      33.307
2014    9        5    11   0    3.79   421.0    5.2      33.285
2014    9        5    11   6    3.79   420.8    5.2      33.263
2014    9        5    11  12    3.79   420.6    5.3      33.241
2014    9        5    11  17    3.79   420.4    5.3      33.219
2014    9        5    11  23    3.79   420.3    5.3      33.197
2014    9        5    11  29    3.79   420.1    5.3      33.175
2014    9        5    11  35    3.79   419.9    5.3      33.153
2014    9        5    11  40    3.79   419.7    5.3      33.132
2014    9        5    11  46    3.79   419.5    5.3      33.110
2014    9        5    11  52    3.79   419.4    5.3      33.088
2014    9        5    11  57    3.79   419.2    5.3      33.066
2014    9        5    12   3    3.79   419.0    5.3      33.044
2014    9        5    12   9    3.80   418.8    5.3      33.023
2014    9        5    12  14    3.80   418.6    5.3      33.001
2014    9        5    12  20    3.80   418.5    5.3      32.979
2014    9        5    12  26    3.80   418.3    5.3      32.958
2014    9        5    12  31    3.80   418.1    5.3      32.936
2014    9        5    12  37    3.80   417.9    5.3      32.915
2014    9        5    12  43    3.80   417.7    5.3      32.893
2014    9        5    12  48    3.80   417.6    5.3      32.872
2014    9        5    12  54    3.80   417.4    5.3      32.850
2014    9        5    13   0    3.80   417.2    5.3      32.829
2014    9        5    13   6    3.80   417.0    5.3      32.808
2014    9        5    13  11    3.80   416.9    5.3      32.787
2014    9        5    13  17    3.80   416.7    5.4      32.766
2014    9        5    13  23    3.80   416.5    5.4      32.745
2014    9        5    13  28    3.80   416.3    5.4      32.723
2014    9        5    13  34    3.80   416.1    5.4      32.702
2014    9        5    13  40    3.80   416.0    5.4      32.681
2014    9        5    13  45    3.80   415.8    5.4      32.660
2014    9        5    13  51    3.80   415.6    5.4      32.639
2014    9        5    13  57    3.80   415.4    5.4      32.618
2014    9        5    14   2    3.81   415.3    5.4      32.597
2014    9        5    14   8    3.81   415.1    5.4      32.576
2014    9        5    14  14    3.81   414.9    5.4      32.555
2014    9        5    14  19    3.81   414.7    5.4      32.535
2014    9        5    14  25    3.81   414.6    5.4      32.514
2014    9        5    14  31    3.81   414.4    5.4      32.493
2014    9        5    14  37    3.81   414.2    5.4      32.472
2014    9        5    14  42    3.81   414.0    5.4      32.452
2014    9        5    14  48    3.81   413.8    5.4      32.431
2014    9        5    14  54    3.81   413.7    5.4      32.410
2014    9        5    14  59    3.81   413.5    5.4      32.390
2014    9        5    15   5    3.81   413.3    5.4      32.369
2014    9        5    15  11    3.81   413.1    5.4      32.349
2014    9        5    15  16    3.81   413.0    5.4      32.329
2014    9        5    15  22    3.81   412.8    5.4      32.309
2014    9        5    15  28    3.81   412.6    5.4      32.289
2014    9        5    15  33    3.82   412.4    5.5      32.269
2014    9        5    15  39    3.82   412.2    5.5      32.249
2014    9        5    15  45    3.82   412.1    5.5      32.230
2014    9        5    15  50    3.82   411.9    5.5      32.210
2014    9        5    15  56    3.82   411.7    5.5      32.191
2014    9        5    16   2    3.82   411.5    5.5      32.171
2014    9        5    16   8    3.82   411.4    5.5      32.152
2014    9        5    16  13    3.82   411.2    5.5      32.133
2014    9        5    16  19    3.82   411.0    5.5      32.114
2014    9        5    16  25    3.82   410.8    5.5      32.096
2014    9        5    16  30    3.82   410.7    5.5      32.077
2014    9        5    16  36    3.82   410.5    5.5      32.059
2014    9        5    16  42    3.82   410.3    5.5      32.040
2014    9        5    16  47    3.83   410.1    5.5      32.022
2014    9        5    16  53    3.83   410.0    5.5      32.004
2014    9        5    16  59    3.83   409.8    5.5      31.986
2014    9        5    17   4    3.83   409.6    5.5      31.968
2014    9        5    17  10    3.83   409.5    5.5      31.951
2014    9        5    17  16    3.83   409.3    5.5      31.933
2014    9        5    17  21    3.83   409.1    5.5      31.916
2014    9        5    17  27    3.83   408.9    5.5      31.899
2014    9        5    17  33    3.83   408.8    5.5      31.881
2014    9        5    17  39    3.83   408.6    5.5      31.864
2014    9        5    17  44    3.83   408.4    5.5      31.847
2014    9        5    17  50    3.84   408.3    5.6      31.830
2014    9        5    17  56    3.84   408.1    5.6      31.814
2014    9        5    18   1    3.84   407.9    5.6      31.797
2014    9        5    18   7    3.84   407.7    5.6      31.780
2014    9        5    18  13    3.84   407.6    5.6      31.764
2014    9        5    18  18    3.84   407.4    5.6      31.747
2014    9        5    18  24    3.84   407.2    5.6      31.731
2014    9        5    18  30    3.84   407.1    5.6      31.714
2014    9        5    18  35    3.84   406.9    5.6      31.698
2014    9        5    18  41    3.84   406.7    5.6      31.682
2014    9        5    18  47    3.84   406.6    5.6      31.666
2014    9        5    18  53    3.85   406.4    5.6      31.649
2014    9        5    18  58    3.85   406.2    5.6      31.633
2014    9        5    19   4    3.85   406.1    5.6      31.617
2014    9        5    19  10    3.85   405.9    5.6      31.601
2014    9        5    19  15    3.85   405.7    5.6      31.585
2014    9        5    19  21    3.85   405.6    5.6      31.569
2014    9        5    19  27    3.85   405.4    5.6      31.553
2014    9        5    19  32    3.85   405.2    5.6      31.538
2014    9        5    19  38    3.85   405.1    5.6      31.522
2014    9        5    19  44    3.85   404.9    5.6      31.506
2014    9        5    19  49    3.86   404.7    5.6      31.491
2014    9        5    19  55    3.86   404.6    5.6      31.475
2014    9        5    20   1    3.86   404.4    5.7      31.459
2014    9        5    20   6    3.86   404.2    5.7      31.444
2014    9        5    20  12    3.86   404.1    5.7      31.428
2014    9        5    20  18    3.86   403.9    5.7      31.413
2014    9        5    20  24    3.86   403.7    5.7      31.398
2014    9        5    20  29    3.86   403.6    5.7      31.382
2014    9        5    20  35    3.86   403.4    5.7      31.367
2014    9        5    20  41    3.86   403.2    5.7      31.352
2014    9        5    20  46    3.87   403.1    5.7      31.337
2014    9        5    20  52    3.87   402.9    5.7      31.322
2014    9        5    20  58    3.87   402.7    5.7      31.307
2014    9        5    21   3    3.87   402.6    5.7      31.292
2014    9        5    21   9    3.87   402.4    5.7      31.278
2014    9        5    21  15    3.87   402.3    5.7      31.263
2014    9        5    21  20    3.87   402.1    5.7      31.249
2014    9        5    21  26    3.87   401.9    5.7      31.234
2014    9        5    21  32    3.87   401.8    5.7      31.220
2014    9        5    21  37    3.88   401.6    5.7      31.206
2014    9        5    21  43    3.88   401.4    5.7      31.192
2014    9        5    21  49    3.88   401.3    5.7      31.179
2014    9        5    21  55    3.88   401.1    5.7      31.165
2014    9        5    22   0    3.88   401.0    5.7      31.152
2014    9        5    22   6    3.88   400.8    5.8      31.139
2014    9        5    22  12    3.88   400.6    5.8      31.126
2014    9        5    22  17    3.88   400.5    5.8      31.113
2014    9        5    22  23    3.89   400.3    5.8      31.101
2014    9        5    22  29    3.89   400.2    5.8      31.088
2014    9        5    22  34    3.89   400.0    5.8      31.076
2014    9        5    22  40    3.89   399.9    5.8      31.064
2014    9        5    22  46    3.89   399.7    5.8      31.053
2014    9        5    22  51    3.89   399.5    5.8      31.041
2014    9        5    22  57    3.89   399.4    5.8      31.030
2014    9        5    23   3    3.89   399.2    5.8      31.019
2014    9        5    23   8    3.90   399.1    5.8      31.008
2014    9        5    23  14    3.90   398.9    5.8      30.997
2014    9        5    23  20    3.90   398.8    5.8      30.987
2014    9        5    23  26    3.90   398.6    5.8      30.977
2014    9        5    23  31    3.90   398.4    5.8      30.967
2014    9        5    23  37    3.90   398.3    5.8      30.957
2014    9        5    23  43    3.90   398.1    5.8      30.948
2014    9        5    23  48    3.91   398.0    5.8      30.938
2014    9        5    23  54    3.91   397.8    5.8      30.929
2014    9        6     0   0    3.91   397.7    5.9      30.920
2014    9        6     0   5    3.91   397.5    5.9      30.911
2014    9        6     0  11    3.91   397.4    5.9      30.901
2014    9        6     0  17    3.91   397.2    5.9      30.892
2014    9        6     0  22    3.92   397.1    5.9      30.883
2014    9        6     0  28    3.92   396.9    5.9      30.874
2014    9        6     0  34    3.92   396.8    5.9      30.864
2014    9        6     0  39    3.92   396.6    5.9      30.855
2014    9        6     0  45    3.92   396.5    5.9      30.846
2014    9        6     0  51    3.92   396.3    5.9      30.836
2014    9        6     0  57    3.92   396.1    5.9      30.827
2014    9        6     1   2    3.93   396.0    5.9      30.817
2014    9        6     1   8    3.93   395.9    5.9      30.808
2014    9        6     1  14    3.93   395.7    5.9      30.799
2014    9        6     1  19    3.93   395.6    5.9      30.789
2014    9        6     1  25    3.93   395.4    5.9      30.780
2014    9        6     1  31    3.93   395.3    5.9      30.770
2014    9        6     1  36    3.94   395.1    5.9      30.761
2014    9        6     1  42    3.94   395.0    5.9      30.751
2014    9        6     1  48    3.94   394.8    5.9      30.742
2014    9        6     1  53    3.94   394.7    6.0      30.732
2014    9        6     1  59    3.94   394.5    6.0      30.723
2014    9        6     2   5    3.94   394.4    6.0      30.713
2014    9        6     2  10    3.95   394.2    6.0      30.704
2014    9        6     2  16    3.95   394.1    6.0      30.694
2014    9        6     2  22    3.95   393.9    6.0      30.685
2014    9        6     2  28    3.95   393.8    6.0      30.676
2014    9        6     2  33    3.95   393.7    6.0      30.666
2014    9        6     2  39    3.95   393.5    6.0      30.657
2014    9        6     2  45    3.95   393.4    6.0      30.647
2014    9        6     2  50    3.96   393.2    6.0      30.638
2014    9        6     2  56    3.96   393.1    6.0      30.628
2014    9        6     3   2    3.96   392.9    6.0      30.618
2014    9        6     3   7    3.96   392.8    6.0      30.608
2014    9        6     3  13    3.96   392.7    6.0      30.598
2014    9        6     3  19    3.96   392.5    6.0      30.588
2014    9        6     3  24    3.97   392.4    6.0      30.577
2014    9        6     3  30    3.97   392.2    6.0      30.567
2014    9        6     3  36    3.97   392.1    6.0      30.556
2014    9        6     3  41    3.97   392.0    6.0      30.546
2014    9        6     3  47    3.97   391.8    6.0      30.535
2014    9        6     3  53    3.97   391.7    6.0      30.525
2014    9        6     3  59    3.98   391.5    6.0      30.514
2014    9        6     4   4    3.98   391.4    6.0      30.503
2014    9        6     4  10    3.98   391.3    6.1      30.493
2014    9        6     4  16    3.98   391.1    6.1      30.482
2014    9        6     4  21    3.98   391.0    6.1      30.471
2014    9        6     4  27    3.98   390.8    6.1      30.460
2014    9        6     4  33    3.99   390.7    6.1      30.450
2014    9        6     4  38    3.99   390.6    6.1      30.439
2014    9        6     4  44    3.99   390.4    6.1      30.428
2014    9        6     4  50    3.99   390.3    6.1      30.418
2014    9        6     4  55    3.99   390.2    6.1      30.407
2014    9        6     5   1    3.99   390.0    6.1      30.397
2014    9        6     5   7    4.00   389.9    6.1      30.387
2014    9        6     5  12    4.00   389.7    6.1      30.377
2014    9        6     5  18    4.00   389.6    6.1      30.367
2014    9        6     5  24    4.00   389.5    6.1      30.357
2014    9        6     5  30    4.00   389.3    6.1      30.347
2014    9        6     5  35    4.00   389.2    6.1      30.338
2014    9        6     5  41    4.01   389.1    6.1      30.328
2014    9        6     5  47    4.01   388.9    6.1      30.319
2014    9        6     5  52    4.01   388.8    6.1      30.310
2014    9        6     5  58    4.01   388.7    6.1      30.302
2014    9        6     6   4    4.01   388.5    6.1      30.293
2014    9        6     6   9    4.01   388.4    6.1      30.285
2014    9        6     6  15    4.02   388.3    6.1      30.277
2014    9        6     6  21    4.02   388.1    6.2      30.269
2014    9        6     6  26    4.02   388.0    6.2      30.261
2014    9        6     6  32    4.02   387.9    6.2      30.254
2014    9        6     6  38    4.02   387.8    6.2      30.247
2014    9        6     6  44    4.03   387.6    6.2      30.240
2014    9        6     6  49    4.03   387.5    6.2      30.234
2014    9        6     6  55    4.03   387.4    6.2      30.228
2014    9        6     7   1    4.03   387.2    6.2      30.222
2014    9        6     7   6    4.03   387.1    6.2      30.216
2014    9        6     7  12    4.04   387.0    6.2      30.211
2014    9        6     7  18    4.04   386.9    6.2      30.206
2014    9        6     7  23    4.04   386.7    6.2      30.202
2014    9        6     7  29    4.04   386.6    6.2      30.197
2014    9        6     7  35    4.04   386.5    6.2      30.192
2014    9        6     7  40    4.05   386.4    6.2      30.188
2014    9        6     7  46    4.05   386.2    6.2      30.184
2014    9        6     7  52    4.05   386.1    6.2      30.180
2014    9        6     7  57    4.05   386.0    6.2      30.175
2014    9        6     8   3    4.06   385.8    6.2      30.172
2014    9        6     8   9    4.06   385.7    6.3      30.168
2014    9        6     8  15    4.06   385.6    6.3      30.164
2014    9        6     8  20    4.06   385.5    6.3      30.161
2014    9        6     8  26    4.06   385.4    6.3      30.157
2014    9        6     8  32    4.07   385.2    6.3      30.154
2014    9        6     8  37    4.07   385.1    6.3      30.151
2014    9        6     8  43    4.07   385.0    6.3      30.148
2014    9        6     8  49    4.07   384.9    6.3      30.145
2014    9        6     8  54    4.08   384.7    6.3      30.142
2014    9        6     9   0    4.08   384.6    6.3      30.140
2014    9        6     9   6    4.08   384.5    6.3      30.137
2014    9        6     9  11    4.08   384.4    6.3      30.135
2014    9        6     9  17    4.08   384.3    6.3      30.133
2014    9        6     9  23    4.09   384.1    6.3      30.131
2014    9        6     9  28    4.09   384.0    6.3      30.129
2014    9        6     9  34    4.09   383.9    6.3      30.127
2014    9        6     9  40    4.09   383.8    6.3      30.125
2014    9        6     9  46    4.10   383.7    6.4      30.124
2014    9        6     9  51    4.10   383.6    6.4      30.123
2014    9        6     9  57    4.10   383.5    6.4      30.122
2014    9        6    10   3    4.10   383.3    6.4      30.121
2014    9        6    10   8    4.11   383.2    6.4      30.120
2014    9        6    10  14    4.11   383.1    6.4      30.119
2014    9        6    10  20    4.11   383.0    6.4      30.118
2014    9        6    10  25    4.11   382.9    6.4      30.117
2014    9        6    10  31    4.12   382.8    6.4      30.116
2014    9        6    10  37    4.12   382.7    6.4      30.115
2014    9        6    10  42    4.12   382.6    6.4      30.114
2014    9        6    10  48    4.12   382.4    6.4      30.113
2014    9        6    10  54    4.12   382.3    6.4      30.112
2014    9        6    10  59    4.13   382.2    6.4      30.111
2014    9        6    11   5    4.13   382.1    6.4      30.110
2014    9        6    11  11    4.13   382.0    6.4      30.108
2014    9        6    11  17    4.13   381.9    6.4      30.107
2014    9        6    11  22    4.14   381.8    6.5      30.106
2014    9        6    11  28    4.14   381.7    6.5      30.105
2014    9        6    11  34    4.14   381.6    6.5      30.103
2014    9        6    11  39    4.14   381.5    6.5      30.102
2014    9        6    11  45    4.15   381.4    6.5      30.101
2014    9        6    11  51    4.15   381.2    6.5      30.099
2014    9        6    11  56    4.15   381.1    6.5      30.098
2014    9        6    12   2    4.15   381.0    6.5      30.096
2014    9        6    12   8    4.16   380.9    6.5      30.095
2014    9        6    12  13    4.16   380.8    6.5      30.094
2014    9        6    12  19    4.16   380.7    6.5      30.092
2014    9        6    12  25    4.16   380.6    6.5      30.091
2014    9        6    12  30    4.16   380.5    6.5      30.090
2014    9        6    12  36    4.17   380.4    6.5      30.088
2014    9        6    12  42    4.17   380.3    6.5      30.087
2014    9        6    12  48    4.17   380.2    6.5      30.086
2014    9        6    12  53    4.17   380.1    6.5      30.085
2014    9        6    12  59    4.18   380.0    6.5      30.084
2014    9        6    13   5    4.18   379.9    6.5      30.084
2014    9        6    13  10    4.18   379.8    6.5      30.083
2014    9        6    13  16    4.18   379.7    6.6      30.082
2014    9        6    13  22    4.19   379.6    6.6      30.082
2014    9        6    13  27    4.19   379.5    6.6      30.082
2014    9        6    13  33    4.19   379.4    6.6      30.081
2014    9        6    13  39    4.19   379.3    6.6      30.081
2014    9        6    13  44    4.20   379.2    6.6      30.081
2014    9        6    13  50    4.20   379.1    6.6      30.081
2014    9        6    13  56    4.20   379.0    6.6      30.082
2014    9        6    14   1    4.20   378.9    6.6      30.082
2014    9        6    14   7    4.21   378.8    6.6      30.083
2014    9        6    14  13    4.21   378.7    6.6      30.084
2014    9        6    14  19    4.21   378.6    6.6      30.085
2014    9        6    14  24    4.21   378.5    6.6      30.086
2014    9        6    14  30    4.22   378.4    6.6      30.087
2014    9        6    14  36    4.22   378.3    6.6      30.089
2014    9        6    14  41    4.22   378.2    6.6      30.091
2014    9        6    14  47    4.23   378.1    6.6      30.093
2014    9        6    14  53    4.23   378.0    6.6      30.095
2014    9        6    14  58    4.23   377.9    6.7      30.097
2014    9        6    15   4    4.23   377.8    6.7      30.099
2014    9        6    15  10    4.24   377.7    6.7      30.102
2014    9        6    15  15    4.24   377.6    6.7      30.104
2014    9        6    15  21    4.24   377.5    6.7      30.107
2014    9        6    15  27    4.24   377.4    6.7      30.110
2014    9        6    15  32    4.25   377.4    6.7      30.114
2014    9        6    15  38    4.25   377.3    6.7      30.117
2014    9        6    15  44    4.25   377.2    6.7      30.121
2014    9        6    15  50    4.26   377.1    6.7      30.125
2014    9        6    15  55    4.26   377.0    6.7      30.129
2014    9        6    16   1    4.26   376.9    6.7      30.133
2014    9        6    16   7    4.26   376.8    6.7      30.137
2014    9        6    16  12    4.27   376.7    6.7      30.142
2014    9        6    16  18    4.27   376.7    6.7      30.146
2014    9        6    16  24    4.27   376.6    6.7      30.151
2014    9        6    16  29    4.28   376.5    6.8      30.157
2014    9        6    16  35    4.28   376.4    6.8      30.162
2014    9        6    16  41    4.28   376.3    6.8      30.168
2014    9        6    16  46    4.29   376.2    6.8      30.173
2014    9        6    16  52    4.29   376.2    6.8      30.179
2014    9        6    16  58    4.29   376.1    6.8      30.185
2014    9        6    17   3    4.29   376.0    6.8      30.192
2014    9        6    17   9    4.30   375.9    6.8      30.198
2014    9        6    17  15    4.30   375.9    6.8      30.205
2014    9        6    17  21    4.30   375.8    6.8      30.212
2014    9        6    17  26    4.31   375.7    6.8      30.219
2014    9        6    17  32    4.31   375.6    6.8      30.227
2014    9        6    17  38    4.31   375.6    6.8      30.234
2014    9        6    17  43    4.32   375.5    6.9      30.242
2014    9        6    17  49    4.32   375.4    6.9      30.250
2014    9        6    17  55    4.32   375.4    6.9      30.259
2014    9        6    18   0    4.33   375.3    6.9      30.267
2014    9        6    18   6    4.33   375.2    6.9      30.276
2014    9        6    18  12    4.33   375.1    6.9      30.285
2014    9        6    18  17    4.33   375.1    6.9      30.294
2014    9        6    18  23    4.34   375.0    6.9      30.303
2014    9        6    18  29    4.34   374.9    6.9      30.312
2014    9        6    18  35    4.34   374.9    6.9      30.321
2014    9        6    18  40    4.35   374.8    6.9      30.331
2014    9        6    18  46    4.35   374.7    6.9      30.340
2014    9        6    18  52    4.35   374.7    6.9      30.349
2014    9        6    18  57    4.36   374.6    6.9      30.359
2014    9        6    19   3    4.36   374.5    6.9      30.369
2014    9        6    19   9    4.36   374.4    7.0      30.378
2014    9        6    19  14    4.37   374.4    7.0      30.388
2014    9        6    19  20    4.37   374.3    7.0      30.398
2014    9        6    19  26    4.37   374.2    7.0      30.407
2014    9        6    19  31    4.37   374.2    7.0      30.417
2014    9        6    19  37    4.38   374.1    7.0      30.427
2014    9        6    19  43    4.38   374.0    7.0      30.437
2014    9        6    19  48    4.38   374.0    7.0      30.447
2014    9        6    19  54    4.39   373.9    7.0      30.457
2014    9        6    20   0    4.39   373.8    7.0      30.467
2014    9        6    20   6    4.39   373.8    7.0      30.477
2014    9        6    20  11    4.40   373.7    7.0      30.487
2014    9        6    20  17    4.40   373.6    7.0      30.497
2014    9        6    20  23    4.40   373.6    7.0      30.508
2014    9        6    20  28    4.40   373.5    7.0      30.518
2014    9        6    20  34    4.41   373.4    7.0      30.528
2014    9        6    20  40    4.41   373.4    7.1      30.539
2014    9        6    20  45    4.41   373.3    7.1      30.549
2014    9        6    20  51    4.42   373.2    7.1      30.560
2014    9        6    20  57    4.42   373.2    7.1      30.570
2014    9        6    21   2    4.42   373.1    7.1      30.581
2014    9        6    21   8    4.43   373.1    7.1      30.591
2014    9        6    21  14    4.43   373.0    7.1      30.602
2014    9        6    21  19    4.43   372.9    7.1      30.613
2014    9        6    21  25    4.44   372.9    7.1      30.624
2014    9        6    21  31    4.44   372.8    7.1      30.635
2014    9        6    21  37    4.44   372.8    7.1      30.646
2014    9        6    21  42    4.44   372.7    7.1      30.657
2014    9        6    21  48    4.45   372.6    7.1      30.668
2014    9        6    21  54    4.45   372.6    7.1      30.679
2014    9        6    21  59    4.45   372.5    7.1      30.690
2014    9        6    22   5    4.46   372.5    7.1      30.701
2014    9        6    22  11    4.46   372.4    7.1      30.712
2014    9        6    22  16    4.46   372.3    7.2      30.724
2014    9        6    22  22    4.47   372.3    7.2      30.735
2014    9        6    22  28    4.47   372.2    7.2      30.747
2014    9        6    22  33    4.47   372.2    7.2      30.759
2014    9        6    22  39    4.48   372.1    7.2      30.770
2014    9        6    22  45    4.48   372.1    7.2      30.782
2014    9        6    22  50    4.48   372.0    7.2      30.794
2014    9        6    22  56    4.49   372.0    7.2      30.806
2014    9        6    23   2    4.49   371.9    7.2      30.819
2014    9        6    23   7    4.49   371.8    7.2      30.831
2014    9        6    23  13    4.50   371.8    7.2      30.844
2014    9        6    23  19    4.50   371.7    7.2      30.857
2014    9        6    23  25    4.50   371.7    7.2      30.870
2014    9        6    23  30    4.51   371.6    7.2      30.884
2014    9        6    23  36    4.51   371.6    7.2      30.897
2014    9        6    23  42    4.51   371.5    7.3      30.911
2014    9        6    23  47    4.52   371.5    7.3      30.925
2014    9        6    23  53    4.52   371.5    7.3      30.939
2014    9        6    23  59    4.52   371.4    7.3      30.953
2014    9        7     0   4    4.53   371.4    7.3      30.968
2014    9        7     0  10    4.53   371.3    7.3      30.982
2014    9        7     0  16    4.53   371.3    7.3      30.997
2014    9        7     0  21    4.54   371.2    7.3      31.013
2014    9        7     0  27    4.54   371.2    7.3      31.028
2014    9        7     0  33    4.54   371.2    7.3      31.044
2014    9        7     0  38    4.55   371.1    7.3      31.060
2014    9        7     0  44    4.55   371.1    7.3      31.077
2014    9        7     0  50    4.56   371.1    7.3      31.094
2014    9        7     0  56    4.56   371.0    7.3      31.111
2014    9        7     1   1    4.56   371.0    7.4      31.128
2014    9        7     1   7    4.57   371.0    7.4      31.146
2014    9        7     1  13    4.57   370.9    7.4      31.164
2014    9        7     1  18    4.57   370.9    7.4      31.182
2014    9        7     1  24    4.58   370.9    7.4      31.200
2014    9        7     1  30    4.58   370.8    7.4      31.218
2014    9        7     1  35    4.58   370.8    7.4      31.237
2014    9        7     1  41    4.59   370.8    7.4      31.255
2014    9        7     1  47    4.59   370.7    7.4      31.274
2014    9        7     1  52    4.60   370.7    7.4      31.292
2014    9        7     1  58    4.60   370.7    7.4      31.311
2014    9        7     2   4    4.60   370.6    7.4      31.329
2014    9        7     2   9    4.61   370.6    7.4      31.348
2014    9        7     2  15    4.61   370.6    7.5      31.367
2014    9        7     2  21    4.61   370.5    7.5      31.385
2014    9        7     2  26    4.62   370.5    7.5      31.404
2014    9        7     2  32    4.62   370.5    7.5      31.422
2014    9        7     2  38    4.62   370.4    7.5      31.441
2014    9        7     2  44    4.63   370.4    7.5      31.459
2014    9        7     2  49    4.63   370.4    7.5      31.478
2014    9        7     2  55    4.63   370.3    7.5      31.496
2014    9        7     3   1    4.64   370.3    7.5      31.515
2014    9        7     3   6    4.64   370.3    7.5      31.534
2014    9        7     3  12    4.64   370.2    7.5      31.553
2014    9        7     3  18    4.65   370.2    7.5      31.572
2014    9        7     3  23    4.65   370.2    7.5      31.591
2014    9        7     3  29    4.65   370.1    7.5      31.610
2014    9        7     3  35    4.66   370.1    7.5      31.629
2014    9        7     3  40    4.66   370.1    7.6      31.648
2014    9        7     3  46    4.66   370.0    7.6      31.667
2014    9        7     3  52    4.67   370.0    7.6      31.686
2014    9        7     3  57    4.67   370.0    7.6      31.706
2014    9        7     4   3    4.67   369.9    7.6      31.725
2014    9        7     4   9    4.68   369.9    7.6      31.744
2014    9        7     4  15    4.68   369.9    7.6      31.763
2014    9        7     4  20    4.68   369.9    7.6      31.781
2014    9        7     4  26    4.69   369.8    7.6      31.800
2014    9        7     4  32    4.69   369.8    7.6      31.819
2014    9        7     4  37    4.69   369.8    7.6      31.837
2014    9        7     4  43    4.69   369.7    7.6      31.856
2014    9        7     4  49    4.70   369.7    7.6      31.874
2014    9        7     4  54    4.70   369.7    7.6      31.892
2014    9        7     5   0    4.70   369.6    7.6      31.910
2014    9        7     5   6    4.71   369.6    7.6      31.929
2014    9        7     5  11    4.71   369.6    7.6      31.947
2014    9        7     5  17    4.71   369.6    7.7      31.965
2014    9        7     5  23    4.72   369.5    7.7      31.983
2014    9        7     5  28    4.72   369.5    7.7      32.000
2014    9        7     5  34    4.72   369.5    7.7      32.018
2014    9        7     5  40    4.73   369.5    7.7      32.036
2014    9        7     5  46    4.73   369.4    7.7      32.054
2014    9        7     5  51    4.73   369.4    7.7      32.071
2014    9        7     5  57    4.74   369.4    7.7      32.089
2014    9        7     6   3    4.74   369.3    7.7      32.107
2014    9        7     6   8    4.74   369.3    7.7      32.124
2014    9        7     6  14    4.75   369.3    7.7      32.142
2014    9        7     6  20    4.75   369.3    7.7      32.160
2014    9        7     6  25    4.75   369.2    7.7      32.178
2014    9        7     6  31    4.76   369.2    7.7      32.196
2014    9        7     6  37    4.76   369.2    7.7      32.214
2014    9        7     6  42    4.76   369.2    7.7      32.232
2014    9        7     6  48    4.77   369.2    7.7      32.251
2014    9        7     6  54    4.77   369.1    7.7      32.269
2014    9        7     6  59    4.77   369.1    7.7      32.288
2014    9        7     7   5    4.78   369.1    7.8      32.307
2014    9        7     7  11    4.78   369.1    7.8      32.326
2014    9        7     7  17    4.78   369.1    7.8      32.345
2014    9        7     7  22    4.79   369.0    7.8      32.365
2014    9        7     7  28    4.79   369.0    7.8      32.385
2014    9        7     7  34    4.79   369.0    7.8      32.404
2014    9        7     7  39    4.80   369.0    7.8      32.425
2014    9        7     7  45    4.80   369.0    7.8      32.445
2014    9        7     7  51    4.80   369.0    7.8      32.466
2014    9        7     7  56    4.81   369.0    7.8      32.487
2014    9        7     8   2    4.81   369.0    7.8      32.508
2014    9        7     8   8    4.81   368.9    7.8      32.529
2014    9        7     8  13    4.82   368.9    7.8      32.551
2014    9        7     8  19    4.82   368.9    7.8      32.573
2014    9        7     8  25    4.83   368.9    7.8      32.595
2014    9        7     8  30    4.83   368.9    7.8      32.617
2014    9        7     8  36    4.83   368.9    7.8      32.639
2014    9        7     8  42    4.84   368.9    7.9      32.662
2014    9        7     8  47    4.84   368.9    7.9      32.685
2014    9        7     8  53    4.84   368.9    7.9      32.708
2014    9        7     8  59    4.85   368.9    7.9      32.731
2014    9        7     9   5    4.85   368.9    7.9      32.754
2014    9        7     9  10    4.85   368.9    7.9      32.778
2014    9        7     9  16    4.86   368.9    7.9      32.801
2014    9        7     9  22    4.86   368.9    7.9      32.825
2014    9        7     9  27    4.86   368.9    7.9      32.849
2014    9        7     9  33    4.87   368.9    7.9      32.873
2014    9        7     9  39    4.87   368.9    7.9      32.897
2014    9        7     9  44    4.88   368.9    7.9      32.922
2014    9        7     9  50    4.88   368.9    7.9      32.946
2014    9        7     9  56    4.88   368.9    7.9      32.970
2014    9        7    10   1    4.89   368.9    8.0      32.995
2014    9        7    10   7    4.89   368.9    8.0      33.020
2014    9        7    10  13    4.89   368.9    8.0      33.045
2014    9        7    10  18    4.90   368.9    8.0      33.071
2014    9        7    10  24    4.90   368.9    8.0      33.097
2014    9        7    10  30    4.90   368.9    8.0      33.124
2014    9        7    10  36    4.91   368.9    8.0      33.152
2014    9        7    10  41    4.91   368.9    8.0      33.180
2014    9        7    10  47    4.91   368.9    8.0      33.208
2014    9        7    10  53    4.92   368.9    8.0      33.236
2014    9        7    10  58    4.92   368.9    8.0      33.265
2014    9        7    11   4    4.92   368.9    8.0      33.293
2014    9        7    11  10    4.93   368.9    8.0      33.322
2014    9        7    11  15    4.93   368.9    8.0      33.350
2014    9        7    11  21    4.93   368.9    8.0      33.378
2014    9        7    11  27    4.94   368.9    8.1      33.406
2014    9        7    11  32    4.94   368.9    8.1      33.433
2014    9        7    11  38    4.94   368.9    8.1      33.460
2014    9        7    11  44    4.95   368.9    8.1      33.488
2014    9        7    11  49    4.95   368.9    8.1      33.514
2014    9        7    11  55    4.95   368.9    8.1      33.541
2014    9        7    12   1    4.96   368.9    8.1      33.568
2014    9        7    12   7    4.96   369.0    8.1      33.594
2014    9        7    12  12    4.96   369.0    8.1      33.620
2014    9        7    12  18    4.97   369.0    8.1      33.645
2014    9        7    12  24    4.97   369.0    8.1      33.671
2014    9        7    12  29    4.97   369.0    8.1      33.696
2014    9        7    12  35    4.98   369.0    8.1      33.720
2014    9        7    12  41    4.98   369.0    8.1      33.745
2014    9        7    12  46    4.98   369.0    8.1      33.769
2014    9        7    12  52    4.98   369.0    8.1      33.793
2014    9        7    12  58    4.99   369.0    8.1      33.817
2014    9        7    13   3    4.99   369.0    8.1      33.840
2014    9        7    13   9    4.99   369.0    8.1      33.863
2014    9        7    13  15    5.00   369.0    8.1      33.886
2014    9        7    13  20    5.00   369.1    8.2      33.909
2014    9        7    13  26    5.00   369.1    8.2      33.931
2014    9        7    13  32    5.01   369.1    8.2      33.953
2014    9        7    13  38    5.01   369.1    8.2      33.975
2014    9        7    13  43    5.01   369.1    8.2      33.997
2014    9        7    13  49    5.01   369.1    8.2      34.019
2014    9        7    13  55    5.02   369.1    8.2      34.040
2014    9        7    14   0    5.02   369.1    8.2      34.062
2014    9        7    14   6    5.02   369.1    8.2      34.083
2014    9        7    14  12    5.03   369.1    8.2      34.104
2014    9        7    14  17    5.03   369.2    8.2      34.125
2014    9        7    14  23    5.03   369.2    8.2      34.146
2014    9        7    14  29    5.04   369.2    8.2      34.167
2014    9        7    14  34    5.04   369.2    8.2      34.188
2014    9        7    14  40    5.04   369.2    8.2      34.209
2014    9        7    14  46    5.04   369.2    8.2      34.230
2014    9        7    14  52    5.05   369.2    8.2      34.251
2014    9        7    14  57    5.05   369.3    8.2      34.272
2014    9        7    15   3    5.05   369.3    8.2      34.293
2014    9        7    15   9    5.06   369.3    8.2      34.314
2014    9        7    15  14    5.06   369.3    8.2      34.335
2014    9        7    15  20    5.06   369.3    8.2      34.357
2014    9        7    15  26    5.07   369.3    8.2      34.378
2014    9        7    15  31    5.07   369.4    8.2      34.400
2014    9        7    15  37    5.07   369.4    8.2      34.421
2014    9        7    15  43    5.08   369.4    8.2      34.443
2014    9        7    15  48    5.08   369.4    8.3      34.465
2014    9        7    15  54    5.08   369.4    8.3      34.488
2014    9        7    16   0    5.08   369.5    8.3      34.510
2014    9        7    16   5    5.09   369.5    8.3      34.533
2014    9        7    16  11    5.09   369.5    8.3      34.556
2014    9        7    16  17    5.09   369.5    8.3      34.580
2014    9        7    16  23    5.10   369.6    8.3      34.604
2014    9        7    16  28    5.10   369.6    8.3      34.628
2014    9        7    16  34    5.10   369.6    8.3      34.652
2014    9        7    16  40    5.11   369.6    8.3      34.677
2014    9        7    16  45    5.11   369.7    8.3      34.702
2014    9        7    16  51    5.11   369.7    8.3      34.727
2014    9        7    16  57    5.12   369.7    8.3      34.753
2014    9        7    17   2    5.12   369.8    8.3      34.779
2014    9        7    17   8    5.12   369.8    8.3      34.806
2014    9        7    17  14    5.13   369.8    8.3      34.833
2014    9        7    17  19    5.13   369.9    8.3      34.861
2014    9        7    17  25    5.13   369.9    8.3      34.889
2014    9        7    17  31    5.14   369.9    8.3      34.918
2014    9        7    17  36    5.14   370.0    8.3      34.948
2014    9        7    17  42    5.15   370.0    8.4      34.978
2014    9        7    17  48    5.15   370.1    8.4      35.009
2014    9        7    17  54    5.15   370.1    8.4      35.041
2014    9        7    17  59    5.16   370.1    8.4      35.072
2014    9        7    18   5    5.16   370.2    8.4      35.104
2014    9        7    18  11    5.16   370.2    8.4      35.137
2014    9        7    18  16    5.17   370.3    8.4      35.169
2014    9        7    18  22    5.17   370.3    8.4      35.203
2014    9        7    18  28    5.17   370.4    8.4      35.237
2014    9        7    18  33    5.18   370.4    8.4      35.271
2014    9        7    18  39    5.18   370.5    8.4      35.306
2014    9        7    18  45    5.18   370.5    8.4      35.341
2014    9        7    18  50    5.19   370.6    8.4      35.376
2014    9        7    18  56    5.19   370.6    8.4      35.411
2014    9        7    19   2    5.19   370.7    8.4      35.446
2014    9        7    19   7    5.20   370.7    8.4      35.481
2014    9        7    19  13    5.20   370.8    8.5      35.515
2014    9        7    19  19    5.20   370.8    8.5      35.548
2014    9        7    19  25    5.20   370.9    8.5      35.582
2014    9        7    19  30    5.21   371.0    8.5      35.614
2014    9        7    19  36    5.21   371.0    8.5      35.647
2014    9        7    19  42    5.21   371.1    8.5      35.678
2014    9        7    19  47    5.22   371.1    8.5      35.710
2014    9        7    19  53    5.22   371.2    8.5      35.740
2014    9        7    19  59    5.22   371.2    8.5      35.771
2014    9        7    20   4    5.22   371.3    8.5      35.800
2014    9        7    20  10    5.23   371.3    8.5      35.829
2014    9        7    20  16    5.23   371.4    8.5      35.858
2014    9        7    20  21    5.23   371.4    8.5      35.886
2014    9        7    20  27    5.23   371.5    8.5      35.914
2014    9        7    20  33    5.24   371.5    8.5      35.941
2014    9        7    20  38    5.24   371.6    8.5      35.968
2014    9        7    20  44    5.24   371.7    8.5      35.995
2014    9        7    20  50    5.24   371.7    8.5      36.021
2014    9        7    20  56    5.25   371.8    8.5      36.047
2014    9        7    21   1    5.25   371.8    8.5      36.073
2014    9        7    21   7    5.25   371.9    8.5      36.099
2014    9        7    21  13    5.25   371.9    8.5      36.124
2014    9        7    21  18    5.26   372.0    8.5      36.149
2014    9        7    21  24    5.26   372.0    8.5      36.173
2014    9        7    21  30    5.26   372.1    8.5      36.198
2014    9        7    21  35    5.26   372.1    8.5      36.222
2014    9        7    21  41    5.27   372.2    8.5      36.245
2014    9        7    21  47    5.27   372.2    8.5      36.269
2014    9        7    21  52    5.27   372.3    8.5      36.292
2014    9        7    21  58    5.27   372.3    8.5      36.315
2014    9        7    22   4    5.28   372.4    8.5      36.337
2014    9        7    22   9    5.28   372.4    8.5      36.360
2014    9        7    22  15    5.28   372.5    8.5      36.382
2014    9        7    22  21    5.28   372.5    8.5      36.403
2014    9        7    22  27    5.29   372.6    8.5      36.425
2014    9        7    22  32    5.29   372.6    8.5      36.446
2014    9        7    22  38    5.29   372.7    8.5      36.468
2014    9        7    22  44    5.29   372.7    8.5      36.489
2014    9        7    22  49    5.29   372.8    8.6      36.510
2014    9        7    22  55    5.30   372.8    8.6      36.530
2014    9        7    23   1    5.30   372.9    8.6      36.551
2014    9        7    23   6    5.30   372.9    8.6      36.572
2014    9        7    23  12    5.30   373.0    8.6      36.592
2014    9        7    23  18    5.31   373.0    8.6      36.613
2014    9        7    23  23    5.31   373.1    8.6      36.633
2014    9        7    23  29    5.31   373.1    8.6      36.654
2014    9        7    23  35    5.31   373.2    8.6      36.675
2014    9        7    23  41    5.32   373.2    8.6      36.695
2014    9        7    23  46    5.32   373.3    8.6      36.716
2014    9        7    23  52    5.32   373.4    8.6      36.736
2014    9        7    23  58    5.32   373.4    8.6      36.757
2014    9        8     0   3    5.33   373.5    8.6      36.778
2014    9        8     0   9    5.33   373.5    8.6      36.800
2014    9        8     0  15    5.33   373.6    8.6      36.821
2014    9        8     0  20    5.33   373.6    8.6      36.842
2014    9        8     0  26    5.34   373.7    8.6      36.864
2014    9        8     0  32    5.34   373.7    8.6      36.886
2014    9        8     0  37    5.34   373.8    8.6      36.908
2014    9        8     0  43    5.34   373.9    8.6      36.931
2014    9        8     0  49    5.35   373.9    8.6      36.953
2014    9        8     0  54    5.35   374.0    8.6      36.976
2014    9        8     1   0    5.35   374.0    8.6      37.000
2014    9        8     1   6    5.35   374.1    8.6      37.023
2014    9        8     1  12    5.36   374.2    8.6      37.047
2014    9        8     1  17    5.36   374.2    8.6      37.071
2014    9        8     1  23    5.36   374.3    8.6      37.095
2014    9        8     1  29    5.36   374.4    8.6      37.121
2014    9        8     1  34    5.37   374.4    8.6      37.147
2014    9        8     1  40    5.37   374.5    8.6      37.174
2014    9        8     1  46    5.37   374.6    8.6      37.202
2014    9        8     1  51    5.38   374.6    8.6      37.230
2014    9        8     1  57    5.38   374.7    8.6      37.260
2014    9        8     2   3    5.38   374.8    8.6      37.290
2014    9        8     2   8    5.38   374.9    8.6      37.320
2014    9        8     2  14    5.39   374.9    8.6      37.350
2014    9        8     2  20    5.39   375.0    8.6      37.381
2014    9        8     2  25    5.39   375.1    8.6      37.411
2014    9        8     2  31    5.39   375.2    8.6      37.442
2014    9        8     2  37    5.40   375.2    8.6      37.472
2014    9        8     2  43    5.40   375.3    8.6      37.503
2014    9        8     2  48    5.40   375.4    8.6      37.535
2014    9        8     2  54    5.40   375.5    8.7      37.566
2014    9        8     3   0    5.41   375.6    8.7      37.597
2014    9        8     3   5    5.41   375.6    8.7      37.629
2014    9        8     3  11    5.41   375.7    8.7      37.660
2014    9        8     3  17    5.41   375.8    8.7      37.691
2014    9        8     3  22    5.42   375.9    8.7      37.724
2014    9        8     3  28    5.42   376.0    8.7      37.757
2014    9        8     3  34    5.42   376.1    8.7      37.791
2014    9        8     3  39    5.42   376.1    8.7      37.826
2014    9        8     3  45    5.43   376.2    8.7      37.861
2014    9        8     3  51    5.43   376.3    8.7      37.897
2014    9        8     3  56    5.43   376.4    8.7      37.934
2014    9        8     4   2    5.43   376.5    8.7      37.971
2014    9        8     4   8    5.44   376.6    8.7      38.008
2014    9        8     4  14    5.44   376.7    8.7      38.045
2014    9        8     4  19    5.44   376.8    8.7      38.081
2014    9        8     4  25    5.44   376.9    8.7      38.116
2014    9        8     4  31    5.44   377.0    8.7      38.151
2014    9        8     4  36    5.45   377.1    8.7      38.186
2014    9        8     4  42    5.45   377.2    8.7      38.220
2014    9        8     4  48    5.45   377.3    8.7      38.254
2014    9        8     4  53    5.45   377.4    8.7      38.287
2014    9        8     4  59    5.46   377.5    8.7      38.319
2014    9        8     5   5    5.46   377.6    8.7      38.350
2014    9        8     5  10    5.46   377.6    8.7      38.382
2014    9        8     5  16    5.46   377.7    8.7      38.412
2014    9        8     5  22    5.46   377.8    8.7      38.442
2014    9        8     5  27    5.46   377.9    8.7      38.471
2014    9        8     5  33    5.47   378.0    8.7      38.500
2014    9        8     5  39    5.47   378.1    8.7      38.529
2014    9        8     5  45    5.47   378.2    8.7      38.557
2014    9        8     5  50    5.47   378.3    8.7      38.585
2014    9        8     5  56    5.47   378.4    8.7      38.612
2014    9        8     6   2    5.48   378.5    8.7      38.640
2014    9        8     6   7    5.48   378.6    8.7      38.667
2014    9        8     6  13    5.48   378.7    8.7      38.694
2014    9        8     6  19    5.48   378.8    8.7      38.720
2014    9        8     6  24    5.48   378.9    8.7      38.745
2014    9        8     6  30    5.48   379.0    8.7      38.771
2014    9        8     6  36    5.49   379.1    8.7      38.795
2014    9        8     6  41    5.49   379.1    8.7      38.820
2014    9        8     6  47    5.49   379.2    8.7      38.844
2014    9        8     6  53    5.49   379.3    8.7      38.867
2014    9        8     6  58    5.49   379.4    8.7      38.890
2014    9        8     7   4    5.49   379.5    8.7      38.913
2014    9        8     7  10    5.49   379.6    8.7      38.935
2014    9        8     7  16    5.50   379.7    8.7      38.956
2014    9        8     7  21    5.50   379.8    8.7      38.978
2014    9        8     7  27    5.50   379.9    8.7      38.999
2014    9        8     7  33    5.50   380.0    8.7      39.019
2014    9        8     7  38    5.50   380.1    8.7      39.039
2014    9        8     7  44    5.50   380.2    8.7      39.059
2014    9        8     7  50    5.50   380.3    8.7      39.079
2014    9        8     7  55    5.51   380.4    8.7      39.098
2014    9        8     8   1    5.51   380.5    8.7      39.117
2014    9        8     8   7    5.51   380.6    8.7      39.136
2014    9        8     8  12    5.51   380.7    8.7      39.154
2014    9        8     8  18    5.51   380.7    8.7      39.172
2014    9        8     8  24    5.51   380.8    8.7      39.190
2014    9        8     8  29    5.51   380.9    8.7      39.208
2014    9        8     8  35    5.51   381.0    8.7      39.226
2014    9        8     8  41    5.52   381.1    8.7      39.243
2014    9        8     8  47    5.52   381.2    8.7      39.261
2014    9        8     8  52    5.52   381.3    8.7      39.278
2014    9        8     8  58    5.52   381.4    8.7      39.295
2014    9        8     9   4    5.52   381.5    8.7      39.313
2014    9        8     9   9    5.52   381.6    8.7      39.330
2014    9        8     9  15    5.52   381.7    8.7      39.347
2014    9        8     9  21    5.52   381.8    8.7      39.364
2014    9        8     9  26    5.53   381.9    8.7      39.381
2014    9        8     9  32    5.53   382.0    8.7      39.399
2014    9        8     9  38    5.53   382.1    8.7      39.416
2014    9        8     9  43    5.53   382.2    8.7      39.434
2014    9        8     9  49    5.53   382.3    8.7      39.452
2014    9        8     9  55    5.53   382.4    8.7      39.470
2014    9        8    10   0    5.53   382.5    8.7      39.488
2014    9        8    10   6    5.53   382.6    8.7      39.507
2014    9        8    10  12    5.54   382.6    8.7      39.526
2014    9        8    10  18    5.54   382.7    8.7      39.545
2014    9        8    10  23    5.54   382.8    8.7      39.565
2014    9        8    10  29    5.54   382.9    8.7      39.584
2014    9        8    10  35    5.54   383.0    8.7      39.604
2014    9        8    10  40    5.54   383.1    8.7      39.626
2014    9        8    10  46    5.55   383.2    8.7      39.648
2014    9        8    10  52    5.55   383.3    8.7      39.672
2014    9        8    10  57    5.55   383.4    8.7      39.696
2014    9        8    11   3    5.55   383.5    8.7      39.721
2014    9        8    11   9    5.55   383.6    8.7      39.748
2014    9        8    11  14    5.55   383.8    8.7      39.775
2014    9        8    11  20    5.55   383.9    8.7      39.803
2014    9        8    11  26    5.56   384.0    8.7      39.831
2014    9        8    11  31    5.56   384.1    8.7      39.858
2014    9        8    11  37    5.56   384.2    8.7      39.886
2014    9        8    11  43    5.56   384.3    8.7      39.913
2014    9        8    11  49    5.56   384.4    8.7      39.940
2014    9        8    11  54    5.56   384.5    8.7      39.966
2014    9        8    12   0    5.56   384.6    8.7      39.993
2014    9        8    12   6    5.57   384.7    8.7      40.019
2014    9        8    12  11    5.57   384.9    8.7      40.045
2014    9        8    12  17    5.57   385.0    8.7      40.071
2014    9        8    12  23    5.57   385.1    8.7      40.097
2014    9        8    12  28    5.57   385.2    8.7      40.123
2014    9        8    12  34    5.57   385.3    8.7      40.149
2014    9        8    12  40    5.57   385.4    8.7      40.174
2014    9        8    12  45    5.57   385.5    8.7      40.200
2014    9        8    12  51    5.57   385.6    8.7      40.226
2014    9        8    12  57    5.58   385.8    8.7      40.251
2014    9        8    13   2    5.58   385.9    8.7      40.277
2014    9        8    13   8    5.58   386.0    8.7      40.302
2014    9        8    13  14    5.58   386.1    8.7      40.327
2014    9        8    13  20    5.58   386.2    8.7      40.352
2014    9        8    13  25    5.58   386.3    8.7      40.377
2014    9        8    13  31    5.58   386.4    8.7      40.402
2014    9        8    13  37    5.58   386.5    8.7      40.427
2014    9        8    13  42    5.58   386.7    8.7      40.451
2014    9        8    13  48    5.58   386.8    8.7      40.476
2014    9        8    13  54    5.58   386.9    8.7      40.500
2014    9        8    13  59    5.59   387.0    8.7      40.525
2014    9        8    14   5    5.59   387.1    8.7      40.549
2014    9        8    14  11    5.59   387.2    8.7      40.574
2014    9        8    14  16    5.59   387.3    8.7      40.598
2014    9        8    14  22    5.59   387.5    8.7      40.622
2014    9        8    14  28    5.59   387.6    8.7      40.647
2014    9        8    14  33    5.59   387.7    8.7      40.670
2014    9        8    14  39    5.59   387.8    8.7      40.694
2014    9        8    14  45    5.59   387.9    8.7      40.717
2014    9        8    14  51    5.59   388.0    8.7      40.740
2014    9        8    14  56    5.59   388.1    8.7      40.762
2014    9        8    15   2    5.59   388.3    8.7      40.784
2014    9        8    15   8    5.59   388.4    8.6      40.806
2014    9        8    15  13    5.59   388.5    8.6      40.828
2014    9        8    15  19    5.59   388.6    8.6      40.849
2014    9        8    15  25    5.59   388.7    8.6      40.871
2014    9        8    15  30    5.59   388.8    8.6      40.892
2014    9        8    15  36    5.60   389.0    8.6      40.914
2014    9        8    15  42    5.60   389.1    8.6      40.935
2014    9        8    15  47    5.60   389.2    8.6      40.956
2014    9        8    15  53    5.60   389.3    8.6      40.977
2014    9        8    15  59    5.60   389.4    8.6      40.997
2014    9        8    16   4    5.60   389.5    8.6      41.017
2014    9        8    16  10    5.60   389.7    8.6      41.036
2014    9        8    16  16    5.60   389.8    8.6      41.055
2014    9        8    16  22    5.60   389.9    8.6      41.073
2014    9        8    16  27    5.60   390.0    8.6      41.091
2014    9        8    16  33    5.60   390.1    8.6      41.109
2014    9        8    16  39    5.60   390.3    8.6      41.126
2014    9        8    16  44    5.60   390.4    8.6      41.143
2014    9        8    16  50    5.60   390.5    8.6      41.159
2014    9        8    16  56    5.60   390.6    8.6      41.175
2014    9        8    17   1    5.60   390.7    8.6      41.190
2014    9        8    17   7    5.60   390.8    8.6      41.205
2014    9        8    17  13    5.60   391.0    8.6      41.220
2014    9        8    17  18    5.60   391.1    8.6      41.234
2014    9        8    17  24    5.60   391.2    8.6      41.248
2014    9        8    17  30    5.60   391.3    8.6      41.262
2014    9        8    17  35    5.60   391.4    8.6      41.275
2014    9        8    17  41    5.60   391.5    8.6      41.288
2014    9        8    17  47    5.60   391.6    8.5      41.300
2014    9        8    17  53    5.60   391.8    8.5      41.313
2014    9        8    17  58    5.60   391.9    8.5      41.325
2014    9        8    18   4    5.60   392.0    8.5      41.336
2014    9        8    18  10    5.60   392.1    8.5      41.347
2014    9        8    18  15    5.60   392.2    8.5      41.359
2014    9        8    18  21    5.60   392.3    8.5      41.369
2014    9        8    18  27    5.60   392.4    8.5      41.380
2014    9        8    18  32    5.60   392.6    8.5      41.391
2014    9        8    18  38    5.60   392.7    8.5      41.401
2014    9        8    18  44    5.60   392.8    8.5      41.411
2014    9        8    18  49    5.59   392.9    8.5      41.421
2014    9        8    18  55    5.59   393.0    8.5      41.431
2014    9        8    19   1    5.59   393.1    8.5      41.440
2014    9        8    19   6    5.59   393.2    8.5      41.450
2014    9        8    19  12    5.59   393.3    8.5      41.459
2014    9        8    19  18    5.59   393.5    8.5      41.469
2014    9        8    19  24    5.59   393.6    8.5      41.478
2014    9        8    19  29    5.59   393.7    8.5      41.488
2014    9        8    19  35    5.59   393.8    8.5      41.497
2014    9        8    19  41    5.59   393.9    8.4      41.507
2014    9        8    19  46    5.59   394.0    8.4      41.516
2014    9        8    19  52    5.59   394.1    8.4      41.526
2014    9        8    19  58    5.59   394.2    8.4      41.536
2014    9        8    20   3    5.59   394.3    8.4      41.545
2014    9        8    20   9    5.59   394.4    8.4      41.555
2014    9        8    20  15    5.59   394.6    8.4      41.565
2014    9        8    20  20    5.59   394.7    8.4      41.575
2014    9        8    20  26    5.59   394.8    8.4      41.585
2014    9        8    20  32    5.59   394.9    8.4      41.596
2014    9        8    20  37    5.59   395.0    8.4      41.606
2014    9        8    20  43    5.59   395.1    8.4      41.617
2014    9        8    20  49    5.59   395.2    8.4      41.627
2014    9        8    20  55    5.59   395.3    8.4      41.638
2014    9        8    21   0    5.59   395.4    8.4      41.649
2014    9        8    21   6    5.59   395.5    8.4      41.660
2014    9        8    21  12    5.59   395.6    8.4      41.672
2014    9        8    21  17    5.59   395.7    8.4      41.684
2014    9        8    21  23    5.59   395.8    8.4      41.697
2014    9        8    21  29    5.59   395.9    8.4      41.709
2014    9        8    21  34    5.59   396.0    8.4      41.722
2014    9        8    21  40    5.58   396.1    8.4      41.736
2014    9        8    21  46    5.58   396.3    8.4      41.749
2014    9        8    21  51    5.58   396.4    8.4      41.763
2014    9        8    21  57    5.58   396.5    8.4      41.776
2014    9        8    22   3    5.58   396.6    8.4      41.789
2014    9        8    22   8    5.58   396.7    8.3      41.801
2014    9        8    22  14    5.58   396.8    8.3      41.815
2014    9        8    22  20    5.58   396.9    8.3      41.828
2014    9        8    22  26    5.58   397.0    8.3      41.842
2014    9        8    22  31    5.58   397.1    8.3      41.855
2014    9        8    22  37    5.58   397.2    8.3      41.869
2014    9        8    22  43    5.58   397.3    8.3      41.883
2014    9        8    22  48    5.58   397.4    8.3      41.898
2014    9        8    22  54    5.58   397.5    8.3      41.912
2014    9        8    23   0    5.58   397.6    8.3      41.927
2014    9        8    23   5    5.58   397.7    8.3      41.941
2014    9        8    23  11    5.58   397.8    8.3      41.955
2014    9        8    23  17    5.58   397.9    8.3      41.969
2014    9        8    23  22    5.58   398.0    8.3      41.983
2014    9        8    23  28    5.57   398.1    8.3      41.996
2014    9        8    23  34    5.57   398.2    8.3      42.010
2014    9        8    23  39    5.57   398.3    8.3      42.023
2014    9        8    23  45    5.57   398.4    8.3      42.036
2014    9        8    23  51    5.57   398.5    8.3      42.049
2014    9        8    23  57    5.57   398.6    8.3      42.062
2014    9        9     0   2    5.57   398.7    8.3      42.075
2014    9        9     0   8    5.57   398.8    8.3      42.087
2014    9        9     0  14    5.57   398.9    8.3      42.100
2014    9        9     0  19    5.57   399.0    8.3      42.112
2014    9        9     0  25    5.57   399.1    8.3      42.124
2014    9        9     0  31    5.56   399.2    8.3      42.137
2014    9        9     0  36    5.56   399.3    8.3      42.149
2014    9        9     0  42    5.56   399.4    8.3      42.160
2014    9        9     0  48    5.56   399.5    8.3      42.172
2014    9        9     0  53    5.56   399.6    8.2      42.183
2014    9        9     0  59    5.56   399.7    8.2      42.194
2014    9        9     1   5    5.56   399.8    8.2      42.205
2014    9        9     1  10    5.56   399.9    8.2      42.216
2014    9        9     1  16    5.56   400.0    8.2      42.226
2014    9        9     1  22    5.56   400.1    8.2      42.236
2014    9        9     1  28    5.55   400.2    8.2      42.246
2014    9        9     1  33    5.55   400.3    8.2      42.256
2014    9        9     1  39    5.55   400.4    8.2      42.265
2014    9        9     1  45    5.55   400.5    8.2      42.274
2014    9        9     1  50    5.55   400.6    8.2      42.283
2014    9        9     1  56    5.55   400.7    8.2      42.292
2014    9        9     2   2    5.55   400.8    8.2      42.300
2014    9        9     2   7    5.55   400.9    8.2      42.308
2014    9        9     2  13    5.54   401.0    8.2      42.316
2014    9        9     2  19    5.54   401.1    8.2      42.324
2014    9        9     2  24    5.54   401.2    8.2      42.331
2014    9        9     2  30    5.54   401.3    8.2      42.338
2014    9        9     2  36    5.54   401.4    8.2      42.345
2014    9        9     2  41    5.54   401.5    8.2      42.351
2014    9        9     2  47    5.54   401.6    8.2      42.358
2014    9        9     2  53    5.54   401.7    8.1      42.364
2014    9        9     2  59    5.53   401.8    8.1      42.369
2014    9        9     3   4    5.53   401.9    8.1      42.375
2014    9        9     3  10    5.53   402.0    8.1      42.380
2014    9        9     3  16    5.53   402.1    8.1      42.385
2014    9        9     3  21    5.53   402.2    8.1      42.390
2014    9        9     3  27    5.53   402.3    8.1      42.395
2014    9        9     3  33    5.53   402.4    8.1      42.399
2014    9        9     3  38    5.52   402.4    8.1      42.403
2014    9        9     3  44    5.52   402.5    8.1      42.407
2014    9        9     3  50    5.52   402.6    8.1      42.410
2014    9        9     3  55    5.52   402.7    8.1      42.414
2014    9        9     4   1    5.52   402.8    8.1      42.417
2014    9        9     4   7    5.52   402.9    8.1      42.420
2014    9        9     4  12    5.52   403.0    8.1      42.422
2014    9        9     4  18    5.51   403.1    8.1      42.425
2014    9        9     4  24    5.51   403.2    8.1      42.427
2014    9        9     4  30    5.51   403.2    8.1      42.429
2014    9        9     4  35    5.51   403.3    8.1      42.431
2014    9        9     4  41    5.51   403.4    8.0      42.433
2014    9        9     4  47    5.51   403.5    8.0      42.435
2014    9        9     4  52    5.51   403.6    8.0      42.436
2014    9        9     4  58    5.50   403.7    8.0      42.438
2014    9        9     5   4    5.50   403.8    8.0      42.439
2014    9        9     5   9    5.50   403.9    8.0      42.440
2014    9        9     5  15    5.50   403.9    8.0      42.442
2014    9        9     5  21    5.50   404.0    8.0      42.443
2014    9        9     5  26    5.50   404.1    8.0      42.444
2014    9        9     5  32    5.49   404.2    8.0      42.445
2014    9        9     5  38    5.49   404.3    8.0      42.446
2014    9        9     5  43    5.49   404.4    8.0      42.447
2014    9        9     5  49    5.49   404.4    8.0      42.448
2014    9        9     5  55    5.49   404.5    8.0      42.449
2014    9        9     6   1    5.49   404.6    8.0      42.450
2014    9        9     6   6    5.49   404.7    8.0      42.450
2014    9        9     6  12    5.48   404.8    8.0      42.451
2014    9        9     6  18    5.48   404.8    8.0      42.452
2014    9        9     6  23    5.48   404.9    8.0      42.453
2014    9        9     6  29    5.48   405.0    8.0      42.454
2014    9        9     6  35    5.48   405.1    8.0      42.455
2014    9        9     6  40    5.48   405.2    8.0      42.456
2014    9        9     6  46    5.48   405.2    7.9      42.457
2014    9        9     6  52    5.47   405.3    7.9      42.458
2014    9        9     6  57    5.47   405.4    7.9      42.459
2014    9        9     7   3    5.47   405.5    7.9      42.460
2014    9        9     7   9    5.47   405.5    7.9      42.462
2014    9        9     7  14    5.47   405.6    7.9      42.463
2014    9        9     7  20    5.47   405.7    7.9      42.464
2014    9        9     7  26    5.47   405.8    7.9      42.466
2014    9        9     7  32    5.46   405.8    7.9      42.468
2014    9        9     7  37    5.46   405.9    7.9      42.469
2014    9        9     7  43    5.46   406.0    7.9      42.471
2014    9        9     7  49    5.46   406.1    7.9      42.474
2014    9        9     7  54    5.46   406.1    7.9      42.476
2014    9        9     8   0    5.46   406.2    7.9      42.478
2014    9        9     8   6    5.45   406.3    7.9      42.480
2014    9        9     8  11    5.45   406.4    7.9      42.482
2014    9        9     8  17    5.45   406.4    7.9      42.484
2014    9        9     8  23    5.45   406.5    7.9      42.486
2014    9        9     8  28    5.45   406.6    7.9      42.488
2014    9        9     8  34    5.45   406.6    7.9      42.490
2014    9        9     8  40    5.44   406.7    7.9      42.492
2014    9        9     8  45    5.44   406.8    7.9      42.494
2014    9        9     8  51    5.44   406.8    7.9      42.496
2014    9        9     8  57    5.44   406.9    7.9      42.497
2014    9        9     9   3    5.44   407.0    7.8      42.499
2014    9        9     9   8    5.44   407.0    7.8      42.501
2014    9        9     9  14    5.43   407.1    7.8      42.502
2014    9        9     9  20    5.43   407.2    7.8      42.504
2014    9        9     9  25    5.43   407.2    7.8      42.505
2014    9        9     9  31    5.43   407.3    7.8      42.507
2014    9        9     9  37    5.43   407.4    7.8      42.508
2014    9        9     9  42    5.43   407.4    7.8      42.509
2014    9        9     9  48    5.42   407.5    7.8      42.511
2014    9        9     9  54    5.42   407.5    7.8      42.512
2014    9        9     9  59    5.42   407.6    7.8      42.513
2014    9        9    10   5    5.42   407.7    7.8      42.514
2014    9        9    10  11    5.42   407.7    7.8      42.515
2014    9        9    10  16    5.42   407.8    7.8      42.516
2014    9        9    10  22    5.41   407.8    7.8      42.517
2014    9        9    10  28    5.41   407.9    7.8      42.518
2014    9        9    10  34    5.41   407.9    7.8      42.518
2014    9        9    10  39    5.41   408.0    7.8      42.519
2014    9        9    10  45    5.41   408.1    7.8      42.520
2014    9        9    10  51    5.41   408.1    7.8      42.520
2014    9        9    10  56    5.41   408.2    7.8      42.521
2014    9        9    11   2    5.40   408.2    7.8      42.522
2014    9        9    11   8    5.40   408.3    7.8      42.522
2014    9        9    11  13    5.40   408.3    7.8      42.523
2014    9        9    11  19    5.40   408.4    7.8      42.523
2014    9        9    11  25    5.40   408.4    7.8      42.523
2014    9        9    11  30    5.40   408.5    7.8      42.524
2014    9        9    11  36    5.39   408.5    7.7      42.524
2014    9        9    11  42    5.39   408.6    7.7      42.524
2014    9        9    11  47    5.39   408.6    7.7      42.524
2014    9        9    11  53    5.39   408.7    7.7      42.524
2014    9        9    11  59    5.39   408.7    7.7      42.524
2014    9        9    12   5    5.39   408.8    7.7      42.523
2014    9        9    12  10    5.38   408.8    7.7      42.523
2014    9        9    12  16    5.38   408.9    7.7      42.522
2014    9        9    12  22    5.38   408.9    7.7      42.521
2014    9        9    12  27    5.38   409.0    7.7      42.521
2014    9        9    12  33    5.38   409.0    7.7      42.520
2014    9        9    12  39    5.38   409.1    7.7      42.519
2014    9        9    12  44    5.38   409.1    7.7      42.518
2014    9        9    12  50    5.37   409.2    7.7      42.516
2014    9        9    12  56    5.37   409.2    7.7      42.515
2014    9        9    13   1    5.37   409.3    7.7      42.514
2014    9        9    13   7    5.37   409.3    7.7      42.512
2014    9        9    13  13    5.37   409.3    7.7      42.511
2014    9        9    13  18    5.37   409.4    7.7      42.509
2014    9        9    13  24    5.37   409.4    7.7      42.507
2014    9        9    13  30    5.36   409.5    7.7      42.505
2014    9        9    13  36    5.36   409.5    7.7      42.503
2014    9        9    13  41    5.36   409.6    7.7      42.501
2014    9        9    13  47    5.36   409.6    7.7      42.499
2014    9        9    13  53    5.36   409.7    7.7      42.497
2014    9        9    13  58    5.36   409.7    7.7      42.494
2014    9        9    14   4    5.36   409.7    7.7      42.492
2014    9        9    14  10    5.35   409.8    7.7      42.489
2014    9        9    14  15    5.35   409.8    7.7      42.487
2014    9        9    14  21    5.35   409.9    7.7      42.484
2014    9        9    14  27    5.35   409.9    7.7      42.482
2014    9        9    14  32    5.35   409.9    7.7      42.479
2014    9        9    14  38    5.35   410.0    7.6      42.477
2014    9        9    14  44    5.35   410.0    7.6      42.474
2014    9        9    14  49    5.35   410.0    7.6      42.471
2014    9        9    14  55    5.34   410.1    7.6      42.468
2014    9        9    15   1    5.34   410.1    7.6      42.465
2014    9        9    15   7    5.34   410.2    7.6      42.463
2014    9        9    15  12    5.34   410.2    7.6      42.460
2014    9        9    15  18    5.34   410.2    7.6      42.457
2014    9        9    15  24    5.34   410.3    7.6      42.454
2014    9        9    15  29    5.34   410.3    7.6      42.451
2014    9        9    15  35    5.33   410.3    7.6      42.448
2014    9        9    15  41    5.33   410.4    7.6      42.446
2014    9        9    15  46    5.33   410.4    7.6      42.443
2014    9        9    15  52    5.33   410.4    7.6      42.440
2014    9        9    15  58    5.33   410.5    7.6      42.437
2014    9        9    16   3    5.33   410.5    7.6      42.434
2014    9        9    16   9    5.33   410.5    7.6      42.431
2014    9        9    16  15    5.33   410.6    7.6      42.428
2014    9        9    16  20    5.33   410.6    7.6      42.426
2014    9        9    16  26    5.32   410.6    7.6      42.423
2014    9        9    16  32    5.32   410.7    7.6      42.420
2014    9        9    16  38    5.32   410.7    7.6      42.417
2014    9        9    16  43    5.32   410.7    7.6      42.415
2014    9        9    16  49    5.32   410.7    7.6      42.412
2014    9        9    16  55    5.32   410.8    7.6      42.410
2014    9        9    17   0    5.32   410.8    7.6      42.407
2014    9        9    17   6    5.32   410.8    7.6      42.405
2014    9        9    17  12    5.32   410.9    7.6      42.403
2014    9        9    17  17    5.31   410.9    7.6      42.401
2014    9        9    17  23    5.31   410.9    7.6      42.399
2014    9        9    17  29    5.31   411.0    7.6      42.397
2014    9        9    17  34    5.31   411.0    7.6      42.395
2014    9        9    17  40    5.31   411.0    7.6      42.394
2014    9        9    17  46    5.31   411.0    7.6      42.392
2014    9        9    17  51    5.31   411.1    7.6      42.391
2014    9        9    17  57    5.31   411.1    7.6      42.390
2014    9        9    18   3    5.31   411.1    7.6      42.390
2014    9        9    18   9    5.31   411.2    7.6      42.389
2014    9        9    18  14    5.31   411.2    7.6      42.389
2014    9        9    18  20    5.31   411.2    7.6      42.389
2014    9        9    18  26    5.30   411.2    7.6      42.389
2014    9        9    18  31    5.30   411.3    7.6      42.390
2014    9        9    18  37    5.30   411.3    7.6      42.391
2014    9        9    18  43    5.30   411.3    7.6      42.392
2014    9        9    18  48    5.30   411.4    7.6      42.393
2014    9        9    18  54    5.30   411.4    7.6      42.395
2014    9        9    19   0    5.30   411.4    7.6      42.397
2014    9        9    19   5    5.30   411.5    7.6      42.400
2014    9        9    19  11    5.30   411.5    7.6      42.403
2014    9        9    19  17    5.30   411.5    7.6      42.406
2014    9        9    19  22    5.30   411.5    7.6      42.409
2014    9        9    19  28    5.30   411.6    7.6      42.413
2014    9        9    19  34    5.30   411.6    7.6      42.418
2014    9        9    19  40    5.30   411.7    7.6      42.422
2014    9        9    19  45    5.30   411.7    7.6      42.428
2014    9        9    19  51    5.30   411.7    7.6      42.434
2014    9        9    19  57    5.30   411.8    7.6      42.440
2014    9        9    20   2    5.30   411.8    7.6      42.447
2014    9        9    20   8    5.30   411.8    7.6      42.455
2014    9        9    20  14    5.31   411.9    7.6      42.463
2014    9        9    20  19    5.31   411.9    7.6      42.472
2014    9        9    20  25    5.31   412.0    7.6      42.482
2014    9        9    20  31    5.31   412.0    7.6      42.493
2014    9        9    20  36    5.31   412.1    7.6      42.504
2014    9        9    20  42    5.31   412.1    7.6      42.517
2014    9        9    20  48    5.31   412.1    7.6      42.530
2014    9        9    20  53    5.32   412.2    7.6      42.544
2014    9        9    20  59    5.32   412.2    7.6      42.560
2014    9        9    21   5    5.32   412.3    7.6      42.577
2014    9        9    21  11    5.32   412.4    7.6      42.595
2014    9        9    21  16    5.33   412.4    7.6      42.614
2014    9        9    21  22    5.33   412.5    7.6      42.635
2014    9        9    21  28    5.33   412.5    7.6      42.658
2014    9        9    21  33    5.34   412.6    7.6      42.682
2014    9        9    21  39    5.34   412.7    7.6      42.708
2014    9        9    21  45    5.34   412.7    7.6      42.736
2014    9        9    21  50    5.35   412.8    7.6      42.767
2014    9        9    21  56    5.35   412.9    7.6      42.799
2014    9        9    22   2    5.36   413.0    7.6      42.834
2014    9        9    22   7    5.37   413.1    7.7      42.872
2014    9        9    22  13    5.37   413.1    7.7      42.912
2014    9        9    22  19    5.38   413.2    7.7      42.956
2014    9        9    22  24    5.39   413.4    7.7      43.002
2014    9        9    22  30    5.40   413.5    7.7      43.051
2014    9        9    22  36    5.41   413.6    7.7      43.104
2014    9        9    22  42    5.42   413.7    7.7      43.161
2014    9        9    22  47    5.43   413.8    7.7      43.221
2014    9        9    22  53    5.44   414.0    7.8      43.286
2014    9        9    22  59    5.45   414.1    7.8      43.354
2014    9        9    23   4    5.47   414.3    7.8      43.427
2014    9        9    23  10    5.48   414.4    7.8      43.504
2014    9        9    23  16    5.50   414.6    7.8      43.586
2014    9        9    23  21    5.51   414.8    7.9      43.672
2014    9        9    23  27    5.53   415.0    7.9      43.764
2014    9        9    23  33    5.55   415.2    7.9      43.860
2014    9        9    23  38    5.57   415.4    7.9      43.962
2014    9        9    23  44    5.59   415.6    8.0      44.068
2014    9        9    23  50    5.62   415.9    8.0      44.181
2014    9        9    23  55    5.65   416.1    8.0      44.298
2014    9       10     0   1    5.67   416.4    8.1      44.422
2014    9       10     0   7    5.70   416.6    8.1      44.550
2014    9       10     0  13    5.73   416.9    8.1      44.685
2014    9       10     0  18    5.77   417.2    8.2      44.825
2014    9       10     0  24    5.81   417.5    8.2      44.970
2014    9       10     0  30    5.84   417.9    8.2      45.120
2014    9       10     0  35    5.88   418.2    8.3      45.276
2014    9       10     0  41    5.92   418.5    8.3      45.438
2014    9       10     0  47    5.97   418.9    8.4      45.606
2014    9       10     0  52    6.01   419.3    8.4      45.777
2014    9       10     0  58    6.05   419.6    8.5      45.951
2014    9       10     1   4    6.10   420.0    8.5      46.126
2014    9       10     1   9    6.14   420.4    8.6      46.300
2014    9       10     1  15    6.19   420.8    8.6      46.471
2014    9       10     1  21    6.24   421.2    8.7      46.636
2014    9       10     1  26    6.28   421.6    8.8      46.796
2014    9       10     1  32    6.33   422.0    8.8      46.951
2014    9       10     1  38    6.37   422.4    8.9      47.101
2014    9       10     1  43    6.42   422.8    8.9      47.246
2014    9       10     1  49    6.46   423.2    9.0      47.388
2014    9       10     1  55    6.50   423.5    9.1      47.526
2014    9       10     2   1    6.55   423.9    9.1      47.660
2014    9       10     2   6    6.59   424.2    9.2      47.794
2014    9       10     2  12    6.63   424.6    9.2      47.927
2014    9       10     2  18    6.67   424.9    9.3      48.057
2014    9       10     2  23    6.71   425.2    9.4      48.184
2014    9       10     2  29    6.74   425.5    9.4      48.309
2014    9       10     2  35    6.78   425.8    9.5      48.431
2014    9       10     2  40    6.81   426.1    9.5      48.550
2014    9       10     2  46    6.84   426.4    9.6      48.666
2014    9       10     2  52    6.88   426.6    9.6      48.779
2014    9       10     2  57    6.91   426.9    9.7      48.890
2014    9       10     3   3    6.93   427.1    9.8      48.998
2014    9       10     3   9    6.96   427.4    9.8      49.103
2014    9       10     3  14    6.99   427.6    9.9      49.205
2014    9       10     3  20    7.01   427.8    9.9      49.304
2014    9       10     3  26    7.03   428.0   10.0      49.398
2014    9       10     3  32    7.06   428.2   10.0      49.490
2014    9       10     3  37    7.07   428.4   10.0      49.578
2014    9       10     3  43    7.09   428.5   10.1      49.664
2014    9       10     3  49    7.11   428.7   10.1      49.747
2014    9       10     3  54    7.12   428.8   10.2      49.828
2014    9       10     4   0    7.14   429.0   10.2      49.907
2014    9       10     4   6    7.15   429.1   10.2      49.983
2014    9       10     4  11    7.16   429.2   10.3      50.058
2014    9       10     4  17    7.17   429.3   10.3      50.130
2014    9       10     4  23    7.18   429.4   10.3      50.201
2014    9       10     4  28    7.19   429.5   10.3      50.270
2014    9       10     4  34    7.19   429.5   10.4      50.338
2014    9       10     4  40    7.20   429.6   10.4      50.403
2014    9       10     4  45    7.20   429.6   10.4      50.468
2014    9       10     4  51    7.21   429.7   10.4      50.530
2014    9       10     4  57    7.21   429.7   10.4      50.591
2014    9       10     5   3    7.21   429.7   10.5      50.650
2014    9       10     5   8    7.21   429.7   10.5      50.708
2014    9       10     5  14    7.21   429.8   10.5      50.763
2014    9       10     5  20    7.21   429.8   10.5      50.818
2014    9       10     5  25    7.21   429.7   10.5      50.870
2014    9       10     5  31    7.20   429.7   10.5      50.920
2014    9       10     5  37    7.20   429.7   10.5      50.968
2014    9       10     5  42    7.19   429.7   10.5      51.014
2014    9       10     5  48    7.19   429.6   10.5      51.058
2014    9       10     5  54    7.18   429.6   10.5      51.100
2014    9       10     5  59    7.17   429.6   10.5      51.139
2014    9       10     6   5    7.17   429.5   10.5      51.176
2014    9       10     6  11    7.16   429.5   10.5      51.210
2014    9       10     6  16    7.14   429.4   10.5      51.241
2014    9       10     6  22    7.13   429.3   10.5      51.269
2014    9       10     6  28    7.12   429.3   10.5      51.293
2014    9       10     6  34    7.11   429.2   10.5      51.315
2014    9       10     6  39    7.09   429.2   10.5      51.333
2014    9       10     6  45    7.08   429.1   10.5      51.347
2014    9       10     6  51    7.06   429.0   10.4      51.357
2014    9       10     6  56    7.04   429.0   10.4      51.365
2014    9       10     7   2    7.02   428.9   10.4      51.368
2014    9       10     7   8    7.00   428.8   10.4      51.369
2014    9       10     7  13    6.98   428.7   10.4      51.368
2014    9       10     7  19    6.96   428.6   10.4      51.364
2014    9       10     7  25    6.94   428.5   10.4      51.358
2014    9       10     7  30    6.91   428.4   10.4      51.352
2014    9       10     7  36    6.89   428.3   10.3      51.346
2014    9       10     7  42    6.86   428.2   10.3      51.339
2014    9       10     7  47    6.84   428.1   10.3      51.332
2014    9       10     7  53    6.81   427.9   10.3      51.325
2014    9       10     7  59    6.78   427.8   10.3      51.319
2014    9       10     8   5    6.76   427.7   10.2      51.313
2014    9       10     8  10    6.73   427.6   10.2      51.307
2014    9       10     8  16    6.70   427.4   10.2      51.302
2014    9       10     8  22    6.67   427.3   10.2      51.299
2014    9       10     8  27    6.65   427.2   10.2      51.297
2014    9       10     8  33    6.62   427.0   10.1      51.296
2014    9       10     8  39    6.59   426.9   10.1      51.298
2014    9       10     8  44    6.56   426.8   10.1      51.303
2014    9       10     8  50    6.53   426.6   10.1      51.312
2014    9       10     8  56    6.50   426.5   10.1      51.324
2014    9       10     9   1    6.47   426.3   10.0      51.339
2014    9       10     9   7    6.45   426.2   10.0      51.357
2014    9       10     9  13    6.42   426.0   10.0      51.379
2014    9       10     9  18    6.39   425.9   10.0      51.403
2014    9       10     9  24    6.36   425.7    9.9      51.432
2014    9       10     9  30    6.33   425.6    9.9      51.465
2014    9       10     9  36    6.31   425.4    9.9      51.501
2014    9       10     9  41    6.28   425.3    9.9      51.540
2014    9       10     9  47    6.25   425.2    9.8      51.582
2014    9       10     9  53    6.23   425.0    9.8      51.626
2014    9       10     9  58    6.20   424.9    9.8      51.672
2014    9       10    10   4    6.17   424.8    9.8      51.718
2014    9       10    10  10    6.15   424.7    9.7      51.764
2014    9       10    10  15    6.12   424.5    9.7      51.810
2014    9       10    10  21    6.10   424.4    9.7      51.855
2014    9       10    10  27    6.07   424.3    9.7      51.898
2014    9       10    10  32    6.05   424.2    9.6      51.941
2014    9       10    10  38    6.02   424.0    9.6      51.983
2014    9       10    10  44    6.00   423.9    9.6      52.025
2014    9       10    10  49    5.98   423.8    9.5      52.065
2014    9       10    10  55    5.95   423.7    9.5      52.104
2014    9       10    11   1    5.93   423.6    9.5      52.143
2014    9       10    11   7    5.91   423.4    9.5      52.181
2014    9       10    11  12    5.89   423.3    9.4      52.218
2014    9       10    11  18    5.86   423.2    9.4      52.254
2014    9       10    11  24    5.84   423.1    9.4      52.290
2014    9       10    11  29    5.82   423.0    9.3      52.326
2014    9       10    11  35    5.80   422.9    9.3      52.360
2014    9       10    11  41    5.78   422.8    9.3      52.395
2014    9       10    11  46    5.76   422.7    9.2      52.430
2014    9       10    11  52    5.75   422.6    9.2      52.465
2014    9       10    11  58    5.73   422.4    9.2      52.502
2014    9       10    12   3    5.71   422.3    9.1      52.540
2014    9       10    12   9    5.69   422.2    9.1      52.579
2014    9       10    12  15    5.68   422.1    9.1      52.620
2014    9       10    12  20    5.66   421.9    9.0      52.663
2014    9       10    12  26    5.65   421.8    9.0      52.709
2014    9       10    12  32    5.63   421.7    9.0      52.756
2014    9       10    12  38    5.62   421.6    8.9      52.807
2014    9       10    12  43    5.60   421.4    8.9      52.860
2014    9       10    12  49    5.59   421.3    8.9      52.915
2014    9       10    12  55    5.58   421.2    8.8      52.973
2014    9       10    13   0    5.57   421.1    8.8      53.033
2014    9       10    13   6    5.56   420.9    8.7      53.095
2014    9       10    13  12    5.55   420.8    8.7      53.159
2014    9       10    13  17    5.54   420.7    8.7      53.225
2014    9       10    13  23    5.53   420.6    8.6      53.293
2014    9       10    13  29    5.52   420.5    8.6      53.362
2014    9       10    13  34    5.51   420.4    8.6      53.432
2014    9       10    13  40    5.50   420.3    8.5      53.503
2014    9       10    13  46    5.50   420.1    8.5      53.575
2014    9       10    13  51    5.49   420.1    8.5      53.648
2014    9       10    13  57    5.48   420.0    8.4      53.720
2014    9       10    14   3    5.48   419.9    8.4      53.791
2014    9       10    14   9    5.47   419.8    8.4      53.862
2014    9       10    14  14    5.47   419.7    8.3      53.931
2014    9       10    14  20    5.46   419.6    8.3      53.998
2014    9       10    14  26    5.46   419.5    8.3      54.062
2014    9       10    14  31    5.45   419.4    8.2      54.125
2014    9       10    14  37    5.45   419.4    8.2      54.184
2014    9       10    14  43    5.45   419.3    8.2      54.240
2014    9       10    14  48    5.44   419.2    8.1      54.292
2014    9       10    14  54    5.44   419.2    8.1      54.342
2014    9       10    15   0    5.44   419.1    8.1      54.389
2014    9       10    15   5    5.44   419.0    8.0      54.435
2014    9       10    15  11    5.43   419.0    8.0      54.478
2014    9       10    15  17    5.43   418.9    8.0      54.520
2014    9       10    15  22    5.43   418.9    7.9      54.560
2014    9       10    15  28    5.43   418.8    7.9      54.599
2014    9       10    15  34    5.43   418.8    7.9      54.636
2014    9       10    15  40    5.43   418.7    7.9      54.673
2014    9       10    15  45    5.43   418.7    7.8      54.708
2014    9       10    15  51    5.43   418.7    7.8      54.740
2014    9       10    15  57    5.43   418.6    7.8      54.771
2014    9       10    16   2    5.43   418.6    7.8      54.800
2014    9       10    16   8    5.43   418.5    7.7      54.827
2014    9       10    16  14    5.43   418.5    7.7      54.852
2014    9       10    16  19    5.43   418.5    7.7      54.875
2014    9       10    16  25    5.44   418.4    7.7      54.896
2014    9       10    16  31    5.44   418.4    7.6      54.915
2014    9       10    16  36    5.44   418.4    7.6      54.931
2014    9       10    16  42    5.44   418.4    7.6      54.946
2014    9       10    16  48    5.44   418.3    7.6      54.957
2014    9       10    16  53    5.44   418.3    7.5      54.967
2014    9       10    16  59    5.45   418.3    7.5      54.974
2014    9       10    17   5    5.45   418.3    7.5      54.979
2014    9       10    17  10    5.45   418.2    7.5      54.981
2014    9       10    17  16    5.45   418.2    7.5      54.981
2014    9       10    17  22    5.46   418.2    7.4      54.979
2014    9       10    17  28    5.46   418.2    7.4      54.975
2014    9       10    17  33    5.46   418.2    7.4      54.969
2014    9       10    17  39    5.47   418.2    7.4      54.961
2014    9       10    17  45    5.47   418.2    7.4      54.951
2014    9       10    17  50    5.47   418.1    7.3      54.938
2014    9       10    17  56    5.47   418.1    7.3      54.924
2014    9       10    18   2    5.48   418.1    7.3      54.909
2014    9       10    18   7    5.48   418.1    7.3      54.892
2014    9       10    18  13    5.48   418.1    7.3      54.874
2014    9       10    18  19    5.49   418.1    7.2      54.854
2014    9       10    18  24    5.49   418.1    7.2      54.834
2014    9       10    18  30    5.50   418.1    7.2      54.813
2014    9       10    18  36    5.50   418.1    7.2      54.792
2014    9       10    18  41    5.50   418.1    7.2      54.770
2014    9       10    18  47    5.51   418.1    7.2      54.747
2014    9       10    18  53    5.51   418.1    7.1      54.724
2014    9       10    18  59    5.51   418.2    7.1      54.700
2014    9       10    19   4    5.52   418.2    7.1      54.676
2014    9       10    19  10    5.52   418.2    7.1      54.651
2014    9       10    19  16    5.53   418.2    7.1      54.625
2014    9       10    19  21    5.53   418.2    7.1      54.598
2014    9       10    19  27    5.53   418.2    7.1      54.570
2014    9       10    19  33    5.54   418.2    7.0      54.541
2014    9       10    19  38    5.54   418.2    7.0      54.511
2014    9       10    19  44    5.55   418.3    7.0      54.480
2014    9       10    19  50    5.55   418.3    7.0      54.447
2014    9       10    19  55    5.55   418.3    7.0      54.413
2014    9       10    20   1    5.56   418.3    7.0      54.377
2014    9       10    20   7    5.56   418.3    7.0      54.340
2014    9       10    20  12    5.57   418.3    6.9      54.301
2014    9       10    20  18    5.57   418.3    6.9      54.261
2014    9       10    20  24    5.57   418.4    6.9      54.218
2014    9       10    20  30    5.58   418.4    6.9      54.175
2014    9       10    20  35    5.58   418.4    6.9      54.129
2014    9       10    20  41    5.59   418.4    6.9      54.081
2014    9       10    20  47    5.59   418.4    6.9      54.032
2014    9       10    20  52    5.60   418.5    6.9      53.982
2014    9       10    20  58    5.60   418.5    6.9      53.930
2014    9       10    21   4    5.60   418.5    6.9      53.876
2014    9       10    21   9    5.61   418.5    6.9      53.821
2014    9       10    21  15    5.61   418.6    6.9      53.765
2014    9       10    21  21    5.62   418.6    6.8      53.708
2014    9       10    21  26    5.62   418.6    6.8      53.650
2014    9       10    21  32    5.62   418.6    6.8      53.592
2014    9       10    21  38    5.63   418.7    6.8      53.534
2014    9       10    21  43    5.63   418.7    6.8      53.475
2014    9       10    21  49    5.63   418.7    6.8      53.417
2014    9       10    21  55    5.64   418.8    6.8      53.359
2014    9       10    22   1    5.64   418.8    6.8      53.301
2014    9       10    22   6    5.65   418.8    6.8      53.245
2014    9       10    22  12    5.65   418.9    6.8      53.190
2014    9       10    22  18    5.65   418.9    6.8      53.136
2014    9       10    22  23    5.66   418.9    6.8      53.083
2014    9       10    22  29    5.66   419.0    6.9      53.033
2014    9       10    22  35    5.67   419.0    6.9      52.983
2014    9       10    22  40    5.67   419.1    6.9      52.939
2014    9       10    22  46    5.68   419.1    6.9      52.898
2014    9       10    22  52    5.68   419.2    6.9      52.857
2014    9       10    22  57    5.69   419.3    6.9      52.818
2014    9       10    23   3    5.69   419.4    6.9      52.780
2014    9       10    23   9    5.69   419.4    6.9      52.742
2014    9       10    23  14    5.70   419.5    6.9      52.704
2014    9       10    23  20    5.70   419.7    6.9      52.662
2014    9       10    23  26    5.71   419.8    7.0      52.618
2014    9       10    23  32    5.71   419.9    7.0      52.571
2014    9       10    23  37    5.71   420.0    7.0      52.522
2014    9       10    23  43    5.72   420.1    7.0      52.471
2014    9       10    23  49    5.72   420.3    7.0      52.416
2014    9       10    23  54    5.73   420.4    7.0      52.358
2014    9       11     0   0    5.73   420.5    7.0      52.296
2014    9       11     0   6    5.73   420.6    7.0      52.230
2014    9       11     0  11    5.73   420.7    7.0      52.162
2014    9       11     0  17    5.74   420.8    7.1      52.091
2014    9       11     0  23    5.74   420.9    7.1      52.017
2014    9       11     0  28    5.74   421.0    7.1      51.941
2014    9       11     0  34    5.75   421.1    7.1      51.863
2014    9       11     0  40    5.75   421.2    7.1      51.783
2014    9       11     0  45    5.75   421.3    7.1      51.701
2014    9       11     0  51    5.75   421.4    7.1      51.618
2014    9       11     0  57    5.76   421.5    7.1      51.533
2014    9       11     1   3    5.76   421.6    7.1      51.447
2014    9       11     1   8    5.76   421.7    7.2      51.360
2014    9       11     1  14    5.76   421.8    7.2      51.271
2014    9       11     1  20    5.77   421.9    7.2      51.182
2014    9       11     1  25    5.77   421.9    7.2      51.092
2014    9       11     1  31    5.77   422.0    7.2      51.001
2014    9       11     1  37    5.77   422.1    7.2      50.910
2014    9       11     1  42    5.77   422.2    7.2      50.818
2014    9       11     1  48    5.78   422.3    7.2      50.726
2014    9       11     1  54    5.78   422.3    7.3      50.635
2014    9       11     1  59    5.78   422.4    7.3      50.544
2014    9       11     2   5    5.78   422.5    7.3      50.453
2014    9       11     2  11    5.79   422.6    7.3      50.363
2014    9       11     2  16    5.79   422.7    7.3      50.273
2014    9       11     2  22    5.79   422.8    7.3      50.184
2014    9       11     2  28    5.79   422.9    7.4      50.096
2014    9       11     2  34    5.79   423.0    7.4      50.008
2014    9       11     2  39    5.80   423.1    7.4      49.920
2014    9       11     2  45    5.80   423.2    7.4      49.833
2014    9       11     2  51    5.80   423.4    7.4      49.747
2014    9       11     2  56    5.80   423.5    7.4      49.661
2014    9       11     3   2    5.80   423.6    7.4      49.576
2014    9       11     3   8    5.80   423.7    7.5      49.493
2014    9       11     3  13    5.81   423.8    7.5      49.410
2014    9       11     3  19    5.81   423.9    7.5      49.328
2014    9       11     3  25    5.81   424.0    7.5      49.248
2014    9       11     3  30    5.81   424.1    7.5      49.170
2014    9       11     3  36    5.81   424.2    7.5      49.093
2014    9       11     3  42    5.81   424.3    7.6      49.019
2014    9       11     3  47    5.82   424.5    7.6      48.946
2014    9       11     3  53    5.82   424.6    7.6      48.875
2014    9       11     3  59    5.82   424.7    7.6      48.806
2014    9       11     4   5    5.82   424.8    7.6      48.739
2014    9       11     4  10    5.82   425.0    7.6      48.673
2014    9       11     4  16    5.82   425.1    7.6      48.609
2014    9       11     4  22    5.82   425.2    7.7      48.547
2014    9       11     4  27    5.82   425.4    7.7      48.486
2014    9       11     4  33    5.82   425.5    7.7      48.428
2014    9       11     4  39    5.82   425.6    7.7      48.371
2014    9       11     4  44    5.83   425.8    7.7      48.316
2014    9       11     4  50    5.83   425.9    7.7      48.263
2014    9       11     4  56    5.83   426.0    7.7      48.212
2014    9       11     5   1    5.83   426.2    7.7      48.163
2014    9       11     5   7    5.83   426.3    7.8      48.116
2014    9       11     5  13    5.83   426.4    7.8      48.072
2014    9       11     5  18    5.83   426.6    7.8      48.030
2014    9       11     5  24    5.83   426.7    7.8      47.990
2014    9       11     5  30    5.83   426.9    7.8      47.952
2014    9       11     5  35    5.83   427.0    7.8      47.917
2014    9       11     5  41    5.83   427.1    7.8      47.885
2014    9       11     5  47    5.83   427.3    7.8      47.855
2014    9       11     5  53    5.83   427.4    7.8      47.827
2014    9       11     5  58    5.83   427.6    7.9      47.801
2014    9       11     6   4    5.83   427.7    7.9      47.779
2014    9       11     6  10    5.83   427.9    7.9      47.759
2014    9       11     6  15    5.83   428.0    7.9      47.742
2014    9       11     6  21    5.84   428.2    7.9      47.728
2014    9       11     6  27    5.84   428.3    7.9      47.715
2014    9       11     6  32    5.84   428.5    7.9      47.705
2014    9       11     6  38    5.84   428.6    7.9      47.696
2014    9       11     6  44    5.84   428.8    7.9      47.688
2014    9       11     6  49    5.84   428.9    7.9      47.681
2014    9       11     6  55    5.84   429.1    7.9      47.675
2014    9       11     7   1    5.84   429.2    7.9      47.670
2014    9       11     7   6    5.84   429.4    7.9      47.665
2014    9       11     7  12    5.84   429.5    8.0      47.661
2014    9       11     7  18    5.84   429.7    8.0      47.657
2014    9       11     7  24    5.84   429.8    8.0      47.654
2014    9       11     7  29    5.84   429.9    8.0      47.652
2014    9       11     7  35    5.84   430.1    8.0      47.651
2014    9       11     7  41    5.84   430.2    8.0      47.650
2014    9       11     7  46    5.85   430.4    8.0      47.650
2014    9       11     7  52    5.85   430.5    8.0      47.650
2014    9       11     7  58    5.85   430.6    8.0      47.651
2014    9       11     8   3    5.85   430.8    8.0      47.654
2014    9       11     8   9    5.85   430.9    8.0      47.657
2014    9       11     8  15    5.85   431.0    8.0      47.661
2014    9       11     8  20    5.85   431.2    8.0      47.666
2014    9       11     8  26    5.85   431.3    8.0      47.672
2014    9       11     8  32    5.85   431.4    8.0      47.680
2014    9       11     8  37    5.85   431.5    8.0      47.688
2014    9       11     8  43    5.85   431.7    8.0      47.698
2014    9       11     8  49    5.85   431.8    8.0      47.709
2014    9       11     8  55    5.86   431.9    8.0      47.722
2014    9       11     9   0    5.86   432.0    8.0      47.736
2014    9       11     9   6    5.86   432.1    8.0      47.752
2014    9       11     9  12    5.86   432.3    8.0      47.770
2014    9       11     9  17    5.86   432.4    8.0      47.789
2014    9       11     9  23    5.86   432.5    8.0      47.809
2014    9       11     9  29    5.86   432.6    8.0      47.832
2014    9       11     9  34    5.86   432.7    8.0      47.855
2014    9       11     9  40    5.87   432.9    8.0      47.883
2014    9       11     9  46    5.87   433.0    8.1      47.913
2014    9       11     9  51    5.87   433.1    8.1      47.947
2014    9       11     9  57    5.87   433.3    8.1      47.983
2014    9       11    10   3    5.87   433.4    8.1      48.022
2014    9       11    10   8    5.87   433.5    8.1      48.064
2014    9       11    10  14    5.88   433.7    8.1      48.108
2014    9       11    10  20    5.88   433.8    8.1      48.154
2014    9       11    10  26    5.88   433.9    8.1      48.200
2014    9       11    10  31    5.88   434.1    8.1      48.245
2014    9       11    10  37    5.88   434.2    8.1      48.291
2014    9       11    10  43    5.89   434.3    8.1      48.338
2014    9       11    10  48    5.89   434.5    8.1      48.385
2014    9       11    10  54    5.89   434.6    8.1      48.432
2014    9       11    11   0    5.89   434.7    8.1      48.480
2014    9       11    11   5    5.89   434.9    8.1      48.528
2014    9       11    11  11    5.90   435.0    8.1      48.577
2014    9       11    11  17    5.90   435.2    8.1      48.626
2014    9       11    11  22    5.90   435.3    8.1      48.676
2014    9       11    11  28    5.90   435.4    8.1      48.727
2014    9       11    11  34    5.91   435.6    8.1      48.777
2014    9       11    11  39    5.91   435.7    8.1      48.830
2014    9       11    11  45    5.91   435.8    8.1      48.885
2014    9       11    11  51    5.91   436.0    8.1      48.942
2014    9       11    11  57    5.92   436.1    8.1      49.000
2014    9       11    12   2    5.92   436.3    8.1      49.059
2014    9       11    12   8    5.92   436.5    8.1      49.119
2014    9       11    12  14    5.92   436.6    8.1      49.180
2014    9       11    12  19    5.93   436.8    8.1      49.241
2014    9       11    12  25    5.93   437.0    8.1      49.300
2014    9       11    12  31    5.93   437.2    8.1      49.358
2014    9       11    12  36    5.93   437.3    8.1      49.415
2014    9       11    12  42    5.94   437.5    8.1      49.471
2014    9       11    12  48    5.94   437.7    8.1      49.525
2014    9       11    12  53    5.94   437.8    8.1      49.577
2014    9       11    12  59    5.94   438.0    8.1      49.629
2014    9       11    13   5    5.95   438.2    8.1      49.679
2014    9       11    13  10    5.95   438.4    8.1      49.728
2014    9       11    13  16    5.95   438.5    8.1      49.776
2014    9       11    13  22    5.95   438.7    8.1      49.823
2014    9       11    13  27    5.96   438.9    8.1      49.869
2014    9       11    13  33    5.96   439.0    8.1      49.914
2014    9       11    13  39    5.96   439.2    8.1      49.959
2014    9       11    13  45    5.96   439.3    8.1      50.004
2014    9       11    13  50    5.96   439.5    8.1      50.048
2014    9       11    13  56    5.97   439.7    8.1      50.091
2014    9       11    14   2    5.97   439.8    8.1      50.135
2014    9       11    14   7    5.97   440.0    8.1      50.178
2014    9       11    14  13    5.97   440.1    8.1      50.221
2014    9       11    14  19    5.98   440.3    8.1      50.264
2014    9       11    14  24    5.98   440.5    8.1      50.307
2014    9       11    14  30    5.98   440.6    8.1      50.350
2014    9       11    14  36    5.98   440.8    8.1      50.394
2014    9       11    14  41    5.99   440.9    8.1      50.437
2014    9       11    14  47    5.99   441.1    8.1      50.482
2014    9       11    14  53    5.99   441.2    8.0      50.527
2014    9       11    14  58    5.99   441.4    8.0      50.573
2014    9       11    15   4    6.00   441.5    8.0      50.620
2014    9       11    15  10    6.00   441.7    8.0      50.669
2014    9       11    15  16    6.00   441.8    8.0      50.720
2014    9       11    15  21    6.01   442.0    8.0      50.772
2014    9       11    15  27    6.01   442.1    8.0      50.826
2014    9       11    15  33    6.01   442.3    8.0      50.881
2014    9       11    15  38    6.02   442.4    8.0      50.940
2014    9       11    15  44    6.02   442.6    8.0      51.004
2014    9       11    15  50    6.03   442.7    8.0      51.072
2014    9       11    15  55    6.03   442.9    8.0      51.143
2014    9       11    16   1    6.03   443.1    8.1      51.218
2014    9       11    16   7    6.04   443.3    8.1      51.297
2014    9       11    16  12    6.04   443.5    8.1      51.380
2014    9       11    16  18    6.05   443.7    8.1      51.463
2014    9       11    16  24    6.05   443.9    8.1      51.547
2014    9       11    16  29    6.05   444.0    8.1      51.631
2014    9       11    16  35    6.06   444.2    8.1      51.715
2014    9       11    16  41    6.06   444.4    8.1      51.799
2014    9       11    16  47    6.06   444.6    8.1      51.883
2014    9       11    16  52    6.07   444.8    8.1      51.967
2014    9       11    16  58    6.07   445.0    8.1      52.049
2014    9       11    17   4    6.08   445.2    8.1      52.130
2014    9       11    17   9    6.08   445.4    8.1      52.211
2014    9       11    17  15    6.08   445.6    8.1      52.290
2014    9       11    17  21    6.09   445.8    8.1      52.367
2014    9       11    17  26    6.09   446.0    8.1      52.443
2014    9       11    17  32    6.09   446.1    8.1      52.517
2014    9       11    17  38    6.10   446.3    8.1      52.591
2014    9       11    17  43    6.10   446.5    8.1      52.664
2014    9       11    17  49    6.10   446.7    8.1      52.736
2014    9       11    17  55    6.11   446.9    8.1      52.808
2014    9       11    18   0    6.11   447.0    8.1      52.879
2014    9       11    18   6    6.11   447.2    8.1      52.948
2014    9       11    18  12    6.12   447.4    8.1      53.017
2014    9       11    18  18    6.12   447.6    8.1      53.085
2014    9       11    18  23    6.12   447.8    8.1      53.151
2014    9       11    18  29    6.13   448.0    8.1      53.216
2014    9       11    18  35    6.13   448.2    8.1      53.280
2014    9       11    18  40    6.13   448.4    8.1      53.342
2014    9       11    18  46    6.14   448.5    8.1      53.403
2014    9       11    18  52    6.14   448.7    8.1      53.462
2014    9       11    18  57    6.14   448.9    8.1      53.521
2014    9       11    19   3    6.15   449.1    8.1      53.579
2014    9       11    19   9    6.15   449.3    8.1      53.636
2014    9       11    19  14    6.15   449.5    8.1      53.692
2014    9       11    19  20    6.16   449.7    8.1      53.747
2014    9       11    19  26    6.16   449.9    8.1      53.801
2014    9       11    19  31    6.16   450.1    8.1      53.855
2014    9       11    19  37    6.16   450.3    8.1      53.908
2014    9       11    19  43    6.17   450.6    8.1      53.961
2014    9       11    19  49    6.17   450.8    8.1      54.013
2014    9       11    19  54    6.17   451.0    8.1      54.064
2014    9       11    20   0    6.18   451.2    8.1      54.115
2014    9       11    20   6    6.18   451.4    8.1      54.166
2014    9       11    20  11    6.18   451.6    8.1      54.217
2014    9       11    20  17    6.18   451.9    8.1      54.268
2014    9       11    20  23    6.19   452.1    8.1      54.318
2014    9       11    20  28    6.19   452.3    8.1      54.369
2014    9       11    20  34    6.19   452.5    8.1      54.420
2014    9       11    20  40    6.19   452.8    8.1      54.472
2014    9       11    20  45    6.20   453.0    8.1      54.525
2014    9       11    20  51    6.20   453.3    8.1      54.579
2014    9       11    20  57    6.20   453.5    8.1      54.634
2014    9       11    21   2    6.20   453.8    8.1      54.691
2014    9       11    21   8    6.21   454.1    8.0      54.748
2014    9       11    21  14    6.21   454.3    8.0      54.806
2014    9       11    21  19    6.21   454.6    8.0      54.864
2014    9       11    21  25    6.21   454.9    8.0      54.923
2014    9       11    21  31    6.21   455.1    8.0      54.982
2014    9       11    21  37    6.22   455.4    8.0      55.041
2014    9       11    21  42    6.22   455.6    8.0      55.100
2014    9       11    21  48    6.22   455.9    8.0      55.160
2014    9       11    21  54    6.22   456.2    8.0      55.218
2014    9       11    21  59    6.22   456.4    8.0      55.277
2014    9       11    22   5    6.22   456.7    8.0      55.335
2014    9       11    22  11    6.23   457.0    8.0      55.393
2014    9       11    22  16    6.23   457.2    8.0      55.451
2014    9       11    22  22    6.23   457.5    8.0      55.509
2014    9       11    22  28    6.23   457.7    8.0      55.567
2014    9       11    22  33    6.23   458.0    8.0      55.624
2014    9       11    22  39    6.23   458.3    8.0      55.682
2014    9       11    22  45    6.23   458.5    8.0      55.739
2014    9       11    22  50    6.23   458.8    7.9      55.796
2014    9       11    22  56    6.23   459.1    7.9      55.853
2014    9       11    23   2    6.23   459.3    7.9      55.909
2014    9       11    23   8    6.24   459.6    7.9      55.964
2014    9       11    23  13    6.24   459.9    7.9      56.019
2014    9       11    23  19    6.24   460.1    7.9      56.074
2014    9       11    23  25    6.24   460.4    7.9      56.127
2014    9       11    23  30    6.24   460.7    7.9      56.180
2014    9       11    23  36    6.24   460.9    7.9      56.231
2014    9       11    23  42    6.24   461.2    7.9      56.282
2014    9       11    23  47    6.24   461.5    7.9      56.332
2014    9       11    23  53    6.24   461.7    7.9      56.380
2014    9       11    23  59    6.24   462.0    7.9      56.428
2014    9       12     0   4    6.24   462.3    7.9      56.474
2014    9       12     0  10    6.24   462.5    7.8      56.520
2014    9       12     0  16    6.24   462.8    7.8      56.564
2014    9       12     0  21    6.24   463.1    7.8      56.607
2014    9       12     0  27    6.24   463.3    7.8      56.648
2014    9       12     0  33    6.24   463.6    7.8      56.689
2014    9       12     0  39    6.24   463.9    7.8      56.728
2014    9       12     0  44    6.24   464.1    7.8      56.768
2014    9       12     0  50    6.24   464.4    7.8      56.806
2014    9       12     0  56    6.23   464.6    7.8      56.844
2014    9       12     1   1    6.23   464.9    7.8      56.881
2014    9       12     1   7    6.23   465.2    7.8      56.918
2014    9       12     1  13    6.23   465.4    7.7      56.954
2014    9       12     1  18    6.23   465.7    7.7      56.989
2014    9       12     1  24    6.23   465.9    7.7      57.023
2014    9       12     1  30    6.23   466.2    7.7      57.057
2014    9       12     1  35    6.23   466.4    7.7      57.089
2014    9       12     1  41    6.23   466.7    7.7      57.120
2014    9       12     1  47    6.22   466.9    7.7      57.150
2014    9       12     1  52    6.22   467.1    7.7      57.179
2014    9       12     1  58    6.22   467.4    7.7      57.209
2014    9       12     2   4    6.22   467.6    7.7      57.239
2014    9       12     2  10    6.22   467.9    7.7      57.269
2014    9       12     2  15    6.22   468.1    7.6      57.299
2014    9       12     2  21    6.22   468.4    7.6      57.330
2014    9       12     2  27    6.21   468.7    7.6      57.362
2014    9       12     2  32    6.21   468.9    7.6      57.396
2014    9       12     2  38    6.21   469.2    7.6      57.430
2014    9       12     2  44    6.21   469.5    7.6      57.464
2014    9       12     2  49    6.21   469.8    7.6      57.497
2014    9       12     2  55    6.20   470.1    7.6      57.528
2014    9       12     3   1    6.20   470.4    7.6      57.557
2014    9       12     3   6    6.20   470.6    7.6      57.584
2014    9       12     3  12    6.20   470.9    7.5      57.611
2014    9       12     3  18    6.19   471.2    7.5      57.635
2014    9       12     3  23    6.19   471.4    7.5      57.657
2014    9       12     3  29    6.19   471.7    7.5      57.680
2014    9       12     3  35    6.19   471.9    7.5      57.703
2014    9       12     3  41    6.18   472.2    7.5      57.727
2014    9       12     3  46    6.18   472.4    7.5      57.751
2014    9       12     3  52    6.18   472.7    7.5      57.776
2014    9       12     3  58    6.18   472.9    7.5      57.803
2014    9       12     4   3    6.17   473.2    7.4      57.831
2014    9       12     4   9    6.17   473.5    7.4      57.859
2014    9       12     4  15    6.17   473.7    7.4      57.888
2014    9       12     4  20    6.17   474.0    7.4      57.916
2014    9       12     4  26    6.16   474.3    7.4      57.946
2014    9       12     4  32    6.16   474.5    7.4      57.974
2014    9       12     4  37    6.16   474.8    7.4      58.003
2014    9       12     4  43    6.15   475.1    7.4      58.032
2014    9       12     4  49    6.15   475.3    7.4      58.060
2014    9       12     4  54    6.15   475.6    7.3      58.088
2014    9       12     5   0    6.15   475.9    7.3      58.116
2014    9       12     5   6    6.14   476.1    7.3      58.144
2014    9       12     5  11    6.14   476.4    7.3      58.171
2014    9       12     5  17    6.14   476.7    7.3      58.197
2014    9       12     5  23    6.13   476.9    7.3      58.222
2014    9       12     5  29    6.13   477.2    7.3      58.246
2014    9       12     5  34    6.13   477.5    7.3      58.269
2014    9       12     5  40    6.12   477.7    7.2      58.291
2014    9       12     5  46    6.12   478.0    7.2      58.312
2014    9       12     5  51    6.12   478.3    7.2      58.334
2014    9       12     5  57    6.11   478.6    7.2      58.354
2014    9       12     6   3    6.11   478.8    7.2      58.374
2014    9       12     6   8    6.11   479.1    7.2      58.393
2014    9       12     6  14    6.10   479.4    7.2      58.410
2014    9       12     6  20    6.10   479.7    7.2      58.428
2014    9       12     6  25    6.09   479.9    7.1      58.443
2014    9       12     6  31    6.09   480.2    7.1      58.455
2014    9       12     6  37    6.08   480.5    7.1      58.464
2014    9       12     6  42    6.08   480.8    7.1      58.469
2014    9       12     6  48    6.07   481.0    7.1      58.473
2014    9       12     6  54    6.07   481.3    7.1      58.474
2014    9       12     7   0    6.06   481.5    7.1      58.472
2014    9       12     7   5    6.06   481.7    7.1      58.470
2014    9       12     7  11    6.05   482.0    7.0      58.467
2014    9       12     7  17    6.05   482.2    7.0      58.465
2014    9       12     7  22    6.05   482.4    7.0      58.463
2014    9       12     7  28    6.04   482.7    7.0      58.461
2014    9       12     7  34    6.04   482.9    7.0      58.459
2014    9       12     7  39    6.03   483.1    7.0      58.456
2014    9       12     7  45    6.03   483.3    7.0      58.454
2014    9       12     7  51    6.02   483.6    6.9      58.453
2014    9       12     7  56    6.02   483.8    6.9      58.453
2014    9       12     8   2    6.01   484.0    6.9      58.453
2014    9       12     8   8    6.01   484.2    6.9      58.453
2014    9       12     8  13    6.00   484.4    6.9      58.453
2014    9       12     8  19    6.00   484.7    6.9      58.453
2014    9       12     8  25    5.99   484.9    6.9      58.453
2014    9       12     8  31    5.99   485.1    6.9      58.453
2014    9       12     8  36    5.98   485.4    6.9      58.452
2014    9       12     8  42    5.98   485.7    6.8      58.450
2014    9       12     8  48    5.97   485.9    6.8      58.449
2014    9       12     8  53    5.97   486.2    6.8      58.447
2014    9       12     8  59    5.96   486.5    6.8      58.446
2014    9       12     9   5    5.95   486.7    6.8      58.445
2014    9       12     9  10    5.95   487.0    6.8      58.443
2014    9       12     9  16    5.94   487.3    6.8      58.437
2014    9       12     9  22    5.94   487.5    6.8      58.429
2014    9       12     9  27    5.93   487.8    6.7      58.419
2014    9       12     9  33    5.93   488.0    6.7      58.405
2014    9       12     9  39    5.92   488.3    6.7      58.389
2014    9       12     9  44    5.91   488.5    6.7      58.371
2014    9       12     9  50    5.91   488.7    6.7      58.349
2014    9       12     9  56    5.90   489.0    6.7      58.328
2014    9       12    10   2    5.89   489.2    6.6      58.307
2014    9       12    10   7    5.89   489.4    6.6      58.286
2014    9       12    10  13    5.88   489.6    6.6      58.267
2014    9       12    10  19    5.88   489.8    6.6      58.247
2014    9       12    10  24    5.87   490.0    6.6      58.229
2014    9       12    10  30    5.86   490.2    6.6      58.209
2014    9       12    10  36    5.86   490.4    6.6      58.191
2014    9       12    10  41    5.85   490.5    6.6      58.173
2014    9       12    10  47    5.85   490.7    6.5      58.156
2014    9       12    10  53    5.84   490.9    6.5      58.139
2014    9       12    10  58    5.84   491.1    6.5      58.123
2014    9       12    11   4    5.83   491.3    6.5      58.107
2014    9       12    11  10    5.82   491.5    6.5      58.091
2014    9       12    11  15    5.82   491.7    6.5      58.076
2014    9       12    11  21    5.81   491.9    6.5      58.062
2014    9       12    11  27    5.81   492.1    6.5      58.049
2014    9       12    11  33    5.80   492.4    6.4      58.035
2014    9       12    11  38    5.80   492.6    6.4      58.022
2014    9       12    11  44    5.79   492.8    6.4      58.008
2014    9       12    11  50    5.79   493.0    6.4      57.994
2014    9       12    11  55    5.78   493.2    6.4      57.979
2014    9       12    12   1    5.77   493.4    6.4      57.964
2014    9       12    12   7    5.77   493.6    6.4      57.948
2014    9       12    12  12    5.76   493.8    6.4      57.931
2014    9       12    12  18    5.76   494.0    6.4      57.914
2014    9       12    12  24    5.75   494.3    6.3      57.896
2014    9       12    12  29    5.75   494.5    6.3      57.877
2014    9       12    12  35    5.74   494.7    6.3      57.859
2014    9       12    12  41    5.73   494.9    6.3      57.841
2014    9       12    12  46    5.73   495.1    6.3      57.822
2014    9       12    12  52    5.72   495.3    6.3      57.803
2014    9       12    12  58    5.72   495.5    6.3      57.782
2014    9       12    13   3    5.71   495.8    6.3      57.761
2014    9       12    13   9    5.70   496.0    6.2      57.740
2014    9       12    13  15    5.70   496.2    6.2      57.715
2014    9       12    13  21    5.69   496.4    6.2      57.687
2014    9       12    13  26    5.68   496.6    6.2      57.655
2014    9       12    13  32    5.68   496.8    6.2      57.622
2014    9       12    13  38    5.67   497.0    6.2      57.586
2014    9       12    13  43    5.66   497.2    6.2      57.548
2014    9       12    13  49    5.66   497.4    6.2      57.510
2014    9       12    13  55    5.65   497.6    6.1      57.471
2014    9       12    14   0    5.64   497.8    6.1      57.433
2014    9       12    14   6    5.63   497.9    6.1      57.396
2014    9       12    14  12    5.63   498.1    6.1      57.359
2014    9       12    14  17    5.62   498.3    6.1      57.323
2014    9       12    14  23    5.61   498.5    6.1      57.286
2014    9       12    14  29    5.61   498.6    6.1      57.250
2014    9       12    14  34    5.60   498.8    6.1      57.213
2014    9       12    14  40    5.59   499.0    6.0      57.178
2014    9       12    14  46    5.59   499.1    6.0      57.142
2014    9       12    14  52    5.58   499.3    6.0      57.105
2014    9       12    14  57    5.58   499.4    6.0      57.067
2014    9       12    15   3    5.57   499.6    6.0      57.027
2014    9       12    15   9    5.56   499.7    6.0      56.987
2014    9       12    15  14    5.55   499.9    6.0      56.947
2014    9       12    15  20    5.55   500.0    6.0      56.905
2014    9       12    15  26    5.54   500.2    5.9      56.863
2014    9       12    15  31    5.53   500.4    5.9      56.820
2014    9       12    15  37    5.53   500.5    5.9      56.778
2014    9       12    15  43    5.52   500.7    5.9      56.736
2014    9       12    15  48    5.51   500.9    5.9      56.694
2014    9       12    15  54    5.51   501.0    5.9      56.650
2014    9       12    16   0    5.50   501.2    5.9      56.607
2014    9       12    16   5    5.49   501.3    5.9      56.563
2014    9       12    16  11    5.49   501.5    5.9      56.520
2014    9       12    16  17    5.48   501.6    5.8      56.476
2014    9       12    16  23    5.47   501.8    5.8      56.432
2014    9       12    16  28    5.47   501.9    5.8      56.386
2014    9       12    16  34    5.46   502.1    5.8      56.340
2014    9       12    16  40    5.45   502.2    5.8      56.293
2014    9       12    16  45    5.45   502.4    5.8      56.246
2014    9       12    16  51    5.44   502.5    5.8      56.197
2014    9       12    16  57    5.43   502.6    5.8      56.148
2014    9       12    17   2    5.42   502.8    5.8      56.098
2014    9       12    17   8    5.42   502.9    5.7      56.049
2014    9       12    17  14    5.41   503.0    5.7      56.000
2014    9       12    17  19    5.40   503.1    5.7      55.952
2014    9       12    17  25    5.40   503.2    5.7      55.903
2014    9       12    17  31    5.39   503.3    5.7      55.854
2014    9       12    17  36    5.38   503.5    5.7      55.806
2014    9       12    17  42    5.38   503.6    5.7      55.758
2014    9       12    17  48    5.37   503.7    5.7      55.710
2014    9       12    17  54    5.36   503.8    5.7      55.661
2014    9       12    17  59    5.36   503.9    5.6      55.611
2014    9       12    18   5    5.35   504.1    5.6      55.561
2014    9       12    18  11    5.34   504.2    5.6      55.511
2014    9       12    18  16    5.34   504.3    5.6      55.459
2014    9       12    18  22    5.33   504.4    5.6      55.408
2014    9       12    18  28    5.32   504.5    5.6      55.357
2014    9       12    18  33    5.32   504.6    5.6      55.306
2014    9       12    18  39    5.31   504.8    5.6      55.255
2014    9       12    18  45    5.30   504.9    5.6      55.204
2014    9       12    18  50    5.30   505.0    5.6      55.153
2014    9       12    18  56    5.29   505.1    5.5      55.102
2014    9       12    19   2    5.28   505.2    5.5      55.051
2014    9       12    19   7    5.28   505.3    5.5      55.000
2014    9       12    19  13    5.27   505.4    5.5      54.950
2014    9       12    19  19    5.27   505.5    5.5      54.900
2014    9       12    19  25    5.26   505.6    5.5      54.851
2014    9       12    19  30    5.25   505.7    5.5      54.802
2014    9       12    19  36    5.25   505.8    5.5      54.754
2014    9       12    19  42    5.24   505.9    5.5      54.706
2014    9       12    19  47    5.23   506.0    5.5      54.658
2014    9       12    19  53    5.23   506.1    5.5      54.612
2014    9       12    19  59    5.22   506.2    5.4      54.566
2014    9       12    20   4    5.21   506.3    5.4      54.521
2014    9       12    20  10    5.21   506.4    5.4      54.476
2014    9       12    20  16    5.20   506.5    5.4      54.432
2014    9       12    20  21    5.20   506.6    5.4      54.387
2014    9       12    20  27    5.19   506.7    5.4      54.343
2014    9       12    20  33    5.18   506.8    5.4      54.298
2014    9       12    20  38    5.18   506.9    5.4      54.253
2014    9       12    20  44    5.17   507.0    5.4      54.208
2014    9       12    20  50    5.16   507.1    5.4      54.161
2014    9       12    20  55    5.16   507.2    5.4      54.115
2014    9       12    21   1    5.15   507.3    5.4      54.068
2014    9       12    21   7    5.14   507.4    5.3      54.019
2014    9       12    21  13    5.14   507.5    5.3      53.969
2014    9       12    21  18    5.13   507.6    5.3      53.918
2014    9       12    21  24    5.12   507.7    5.3      53.866
2014    9       12    21  30    5.12   507.8    5.3      53.813
2014    9       12    21  35    5.11   507.9    5.3      53.758
2014    9       12    21  41    5.10   508.0    5.3      53.702
2014    9       12    21  47    5.10   508.0    5.3      53.643
2014    9       12    21  52    5.09   508.1    5.3      53.584
2014    9       12    21  58    5.08   508.2    5.3      53.523
2014    9       12    22   4    5.08   508.3    5.2      53.461
2014    9       12    22   9    5.07   508.3    5.2      53.398
2014    9       12    22  15    5.06   508.4    5.2      53.335
2014    9       12    22  21    5.06   508.5    5.2      53.273
2014    9       12    22  26    5.05   508.5    5.2      53.211
2014    9       12    22  32    5.04   508.6    5.2      53.151
2014    9       12    22  38    5.04   508.7    5.2      53.090
2014    9       12    22  44    5.03   508.7    5.2      53.030
2014    9       12    22  49    5.02   508.8    5.2      52.970
2014    9       12    22  55    5.02   508.8    5.2      52.911
2014    9       12    23   1    5.01   508.9    5.2      52.852
2014    9       12    23   6    5.00   509.0    5.1      52.793
2014    9       12    23  12    5.00   509.0    5.1      52.735
2014    9       12    23  18    4.99   509.1    5.1      52.677
2014    9       12    23  23    4.98   509.1    5.1      52.618
2014    9       12    23  29    4.98   509.2    5.1      52.560
2014    9       12    23  35    4.97   509.2    5.1      52.502
2014    9       12    23  40    4.96   509.3    5.1      52.444
2014    9       12    23  46    4.96   509.3    5.1      52.386
2014    9       12    23  52    4.95   509.4    5.1      52.328
2014    9       12    23  57    4.94   509.4    5.1      52.270
2014    9       13     0   3    4.94   509.5    5.1      52.212
2014    9       13     0   9    4.93   509.5    5.1      52.154
2014    9       13     0  15    4.93   509.6    5.1      52.096
2014    9       13     0  20    4.92   509.6    5.0      52.037
2014    9       13     0  26    4.91   509.7    5.0      51.977
2014    9       13     0  32    4.91   509.7    5.0      51.917
2014    9       13     0  37    4.90   509.8    5.0      51.857
2014    9       13     0  43    4.89   509.8    5.0      51.797
2014    9       13     0  49    4.89   509.8    5.0      51.736
2014    9       13     0  54    4.88   509.9    5.0      51.676
2014    9       13     1   0    4.87   509.9    5.0      51.617
2014    9       13     1   6    4.87   509.9    5.0      51.557
2014    9       13     1  11    4.86   509.9    5.0      51.498
2014    9       13     1  17    4.86   509.9    5.0      51.440
2014    9       13     1  23    4.85   509.9    5.0      51.382
2014    9       13     1  28    4.84   510.0    5.0      51.325
2014    9       13     1  34    4.84   510.0    4.9      51.268
2014    9       13     1  40    4.83   510.0    4.9      51.212
2014    9       13     1  46    4.83   510.0    4.9      51.156
2014    9       13     1  51    4.82   510.0    4.9      51.101
2014    9       13     1  57    4.81   510.0    4.9      51.047
2014    9       13     2   3    4.81   510.0    4.9      50.992
2014    9       13     2   8    4.80   510.0    4.9      50.939
2014    9       13     2  14    4.80   510.0    4.9      50.886
2014    9       13     2  20    4.79   510.0    4.9      50.832
2014    9       13     2  25    4.78   510.0    4.9      50.780
2014    9       13     2  31    4.78   510.0    4.9      50.727
2014    9       13     2  37    4.77   510.0    4.9      50.675
2014    9       13     2  42    4.77   510.0    4.9      50.622
2014    9       13     2  48    4.76   509.9    4.9      50.570
2014    9       13     2  54    4.76   509.9    4.9      50.518
2014    9       13     2  59    4.75   509.9    4.9      50.465
2014    9       13     3   5    4.74   509.9    4.8      50.413
2014    9       13     3  11    4.74   509.9    4.8      50.360
2014    9       13     3  17    4.73   509.9    4.8      50.307
2014    9       13     3  22    4.73   509.9    4.8      50.255
2014    9       13     3  28    4.72   509.9    4.8      50.201
2014    9       13     3  34    4.72   509.9    4.8      50.148
2014    9       13     3  39    4.71   509.9    4.8      50.095
2014    9       13     3  45    4.71   509.9    4.8      50.041
2014    9       13     3  51    4.70   509.9    4.8      49.986
2014    9       13     3  56    4.69   509.9    4.8      49.931
2014    9       13     4   2    4.69   509.9    4.8      49.876
2014    9       13     4   8    4.68   509.8    4.8      49.820
2014    9       13     4  13    4.68   509.8    4.8      49.764
2014    9       13     4  19    4.67   509.8    4.8      49.708
2014    9       13     4  25    4.67   509.8    4.8      49.652
2014    9       13     4  30    4.66   509.8    4.8      49.596
2014    9       13     4  36    4.65   509.7    4.8      49.541
2014    9       13     4  42    4.65   509.7    4.7      49.486
2014    9       13     4  47    4.64   509.7    4.7      49.431
2014    9       13     4  53    4.64   509.7    4.7      49.376
2014    9       13     4  59    4.63   509.6    4.7      49.322
2014    9       13     5   5    4.63   509.6    4.7      49.268
2014    9       13     5  10    4.62   509.6    4.7      49.214
2014    9       13     5  16    4.62   509.5    4.7      49.161
2014    9       13     5  22    4.61   509.5    4.7      49.108
2014    9       13     5  27    4.60   509.5    4.7      49.056
2014    9       13     5  33    4.60   509.4    4.7      49.004
2014    9       13     5  39    4.59   509.4    4.7      48.951
2014    9       13     5  44    4.59   509.4    4.7      48.899
2014    9       13     5  50    4.58   509.3    4.7      48.846
2014    9       13     5  56    4.58   509.3    4.7      48.794
2014    9       13     6   1    4.57   509.3    4.7      48.742
2014    9       13     6   7    4.57   509.2    4.7      48.690
2014    9       13     6  13    4.56   509.2    4.7      48.637
2014    9       13     6  19    4.56   509.1    4.7      48.585
2014    9       13     6  24    4.55   509.1    4.7      48.533
2014    9       13     6  30    4.55   509.1    4.7      48.481
2014    9       13     6  36    4.54   509.0    4.6      48.429
2014    9       13     6  41    4.54   509.0    4.6      48.377
2014    9       13     6  47    4.53   508.9    4.6      48.326
2014    9       13     6  53    4.53   508.9    4.6      48.274
2014    9       13     6  58    4.52   508.9    4.6      48.223
2014    9       13     7   4    4.52   508.8    4.6      48.172
2014    9       13     7  10    4.51   508.8    4.6      48.121
2014    9       13     7  15    4.51   508.7    4.6      48.071
2014    9       13     7  21    4.50   508.7    4.6      48.020
2014    9       13     7  27    4.50   508.6    4.6      47.970
2014    9       13     7  32    4.49   508.6    4.6      47.920
2014    9       13     7  38    4.49   508.5    4.6      47.871
2014    9       13     7  44    4.48   508.5    4.6      47.822
2014    9       13     7  50    4.48   508.4    4.6      47.773
2014    9       13     7  55    4.47   508.4    4.6      47.725
2014    9       13     8   1    4.47   508.3    4.6      47.676
2014    9       13     8   7    4.46   508.3    4.6      47.629
2014    9       13     8  12    4.46   508.2    4.6      47.581
2014    9       13     8  18    4.45   508.1    4.6      47.534
2014    9       13     8  24    4.45   508.1    4.6      47.487
2014    9       13     8  29    4.44   508.0    4.6      47.441
2014    9       13     8  35    4.44   508.0    4.6      47.394
2014    9       13     8  41    4.43   507.9    4.6      47.348
2014    9       13     8  46    4.43   507.9    4.6      47.302
2014    9       13     8  52    4.42   507.8    4.6      47.256
2014    9       13     8  58    4.42   507.7    4.6      47.210
2014    9       13     9   3    4.41   507.7    4.5      47.165
2014    9       13     9   9    4.41   507.6    4.5      47.119
2014    9       13     9  15    4.40   507.6    4.5      47.073
2014    9       13     9  20    4.40   507.5    4.5      47.028
2014    9       13     9  26    4.39   507.4    4.5      46.982
2014    9       13     9  32    4.39   507.4    4.5      46.936
2014    9       13     9  38    4.38   507.3    4.5      46.890
2014    9       13     9  43    4.38   507.2    4.5      46.844
2014    9       13     9  49    4.37   507.1    4.5      46.797
2014    9       13     9  55    4.37   507.1    4.5      46.751
2014    9       13    10   0    4.36   507.0    4.5      46.705
2014    9       13    10   6    4.36   506.9    4.5      46.658
2014    9       13    10  12    4.36   506.8    4.5      46.611
2014    9       13    10  17    4.35   506.8    4.5      46.564
2014    9       13    10  23    4.35   506.7    4.5      46.517
2014    9       13    10  29    4.34   506.6    4.5      46.470
2014    9       13    10  34    4.34   506.5    4.5      46.422
2014    9       13    10  40    4.33   506.5    4.5      46.375
2014    9       13    10  46    4.33   506.4    4.5      46.328
2014    9       13    10  51    4.32   506.3    4.5      46.280
2014    9       13    10  57    4.32   506.2    4.5      46.232
2014    9       13    11   3    4.31   506.1    4.5      46.185
2014    9       13    11   9    4.31   506.0    4.5      46.137
2014    9       13    11  14    4.31   506.0    4.5      46.090
2014    9       13    11  20    4.30   505.9    4.5      46.042
2014    9       13    11  26    4.30   505.8    4.5      45.995
2014    9       13    11  31    4.29   505.7    4.5      45.947
2014    9       13    11  37    4.29   505.6    4.5      45.900
2014    9       13    11  43    4.28   505.5    4.5      45.853
2014    9       13    11  48    4.28   505.4    4.4      45.806
2014    9       13    11  54    4.27   505.3    4.4      45.759
2014    9       13    12   0    4.27   505.2    4.4      45.712
2014    9       13    12   5    4.27   505.1    4.4      45.665
2014    9       13    12  11    4.26   505.0    4.4      45.618
2014    9       13    12  17    4.26   505.0    4.4      45.571
2014    9       13    12  22    4.25   504.9    4.4      45.525
2014    9       13    12  28    4.25   504.8    4.4      45.478
2014    9       13    12  34    4.25   504.7    4.4      45.432
2014    9       13    12  40    4.24   504.6    4.4      45.386
2014    9       13    12  45    4.24   504.5    4.4      45.340
2014    9       13    12  51    4.23   504.4    4.4      45.293
2014    9       13    12  57    4.23   504.3    4.4      45.247
2014    9       13    13   2    4.22   504.2    4.4      45.202
2014    9       13    13   8    4.22   504.1    4.4      45.156
2014    9       13    13  14    4.22   504.0    4.4      45.110
2014    9       13    13  19    4.21   503.9    4.4      45.064
2014    9       13    13  25    4.21   503.8    4.4      45.019
2014    9       13    13  31    4.20   503.6    4.4      44.973
2014    9       13    13  36    4.20   503.5    4.4      44.928
2014    9       13    13  42    4.20   503.4    4.4      44.883
2014    9       13    13  48    4.19   503.3    4.4      44.837
2014    9       13    13  53    4.19   503.2    4.4      44.792
2014    9       13    13  59    4.18   503.1    4.4      44.747
2014    9       13    14   5    4.18   503.0    4.4      44.703
2014    9       13    14  11    4.18   502.9    4.4      44.658
2014    9       13    14  16    4.17   502.8    4.4      44.613
2014    9       13    14  22    4.17   502.7    4.4      44.568
2014    9       13    14  28    4.16   502.6    4.4      44.524
2014    9       13    14  33    4.16   502.5    4.4      44.479
2014    9       13    14  39    4.16   502.4    4.4      44.435
2014    9       13    14  45    4.15   502.3    4.4      44.391
2014    9       13    14  50    4.15   502.1    4.4      44.347
2014    9       13    14  56    4.15   502.0    4.4      44.303
2014    9       13    15   2    4.14   501.9    4.4      44.260
2014    9       13    15   7    4.14   501.8    4.3      44.217
2014    9       13    15  13    4.13   501.7    4.3      44.173
2014    9       13    15  19    4.13   501.6    4.3      44.131
2014    9       13    15  24    4.13   501.5    4.3      44.088
2014    9       13    15  30    4.12   501.4    4.3      44.045
2014    9       13    15  36    4.12   501.3    4.3      44.003
2014    9       13    15  41    4.12   501.2    4.3      43.961
2014    9       13    15  47    4.11   501.1    4.3      43.920
2014    9       13    15  53    4.11   500.9    4.3      43.878
2014    9       13    15  59    4.10   500.8    4.3      43.836
2014    9       13    16   4    4.10   500.7    4.3      43.795
2014    9       13    16  10    4.10   500.6    4.3      43.754
2014    9       13    16  16    4.09   500.5    4.3      43.712
2014    9       13    16  21    4.09   500.4    4.3      43.671
2014    9       13    16  27    4.09   500.3    4.3      43.630
2014    9       13    16  33    4.08   500.2    4.3      43.589
2014    9       13    16  38    4.08   500.0    4.3      43.548
2014    9       13    16  44    4.08   499.9    4.3      43.507
2014    9       13    16  50    4.07   499.8    4.3      43.465
2014    9       13    16  55    4.07   499.7    4.3      43.424
2014    9       13    17   1    4.06   499.6    4.3      43.383
2014    9       13    17   7    4.06   499.4    4.3      43.341
2014    9       13    17  12    4.06   499.3    4.3      43.300
2014    9       13    17  18    4.05   499.2    4.3      43.258
2014    9       13    17  24    4.05   499.1    4.3      43.216
2014    9       13    17  30    4.05   498.9    4.3      43.175
2014    9       13    17  35    4.04   498.8    4.3      43.133
2014    9       13    17  41    4.04   498.7    4.3      43.091
2014    9       13    17  47    4.04   498.6    4.3      43.050
2014    9       13    17  52    4.03   498.4    4.3      43.008
2014    9       13    17  58    4.03   498.3    4.3      42.967
2014    9       13    18   4    4.03   498.2    4.3      42.925
2014    9       13    18   9    4.02   498.0    4.3      42.884
2014    9       13    18  15    4.02   497.9    4.3      42.843
2014    9       13    18  21    4.02   497.8    4.3      42.802
2014    9       13    18  26    4.01   497.6    4.3      42.761
2014    9       13    18  32    4.01   497.5    4.3      42.721
2014    9       13    18  38    4.01   497.3    4.3      42.681
2014    9       13    18  43    4.00   497.2    4.3      42.641
2014    9       13    18  49    4.00   497.1    4.3      42.602
2014    9       13    18  55    4.00   496.9    4.3      42.563
2014    9       13    19   1    3.99   496.8    4.3      42.524
2014    9       13    19   6    3.99   496.7    4.3      42.486
2014    9       13    19  12    3.99   496.5    4.3      42.448
2014    9       13    19  18    3.98   496.4    4.3      42.411
2014    9       13    19  23    3.98   496.2    4.3      42.373
2014    9       13    19  29    3.98   496.1    4.3      42.337
2014    9       13    19  35    3.97   496.0    4.3      42.300
2014    9       13    19  40    3.97   495.8    4.3      42.264
2014    9       13    19  46    3.97   495.7    4.3      42.228
2014    9       13    19  52    3.96   495.6    4.3      42.193
2014    9       13    19  57    3.96   495.4    4.3      42.158
2014    9       13    20   3    3.96   495.3    4.3      42.123
2014    9       13    20   9    3.95   495.1    4.3      42.088
2014    9       13    20  14    3.95   495.0    4.3      42.053
2014    9       13    20  20    3.95   494.9    4.3      42.018
2014    9       13    20  26    3.95   494.7    4.3      41.983
2014    9       13    20  32    3.94   494.6    4.3      41.947
2014    9       13    20  37    3.94   494.4    4.3      41.911
2014    9       13    20  43    3.94   494.3    4.3      41.875
2014    9       13    20  49    3.93   494.1    4.3      41.839
2014    9       13    20  54    3.93   494.0    4.3      41.802
2014    9       13    21   0    3.93   493.9    4.3      41.766
2014    9       13    21   6    3.92   493.7    4.3      41.728
2014    9       13    21  11    3.92   493.6    4.3      41.691
2014    9       13    21  17    3.92   493.4    4.3      41.653
2014    9       13    21  23    3.92   493.3    4.3      41.615
2014    9       13    21  28    3.91   493.1    4.3      41.577
2014    9       13    21  34    3.91   493.0    4.3      41.539
2014    9       13    21  40    3.91   492.8    4.2      41.501
2014    9       13    21  45    3.90   492.7    4.2      41.462
2014    9       13    21  51    3.90   492.6    4.2      41.424
2014    9       13    21  57    3.90   492.4    4.2      41.385
2014    9       13    22   3    3.89   492.3    4.2      41.346
2014    9       13    22   8    3.89   492.1    4.2      41.308
2014    9       13    22  14    3.89   492.0    4.2      41.269
2014    9       13    22  20    3.89   491.8    4.2      41.231
2014    9       13    22  25    3.88   491.7    4.2      41.192
2014    9       13    22  31    3.88   491.5    4.2      41.154
2014    9       13    22  37    3.88   491.4    4.2      41.115
2014    9       13    22  42    3.87   491.2    4.2      41.077
2014    9       13    22  48    3.87   491.1    4.2      41.039
2014    9       13    22  54    3.87   490.9    4.2      41.001
2014    9       13    22  59    3.87   490.8    4.2      40.963
2014    9       13    23   5    3.86   490.6    4.2      40.925
2014    9       13    23  11    3.86   490.5    4.2      40.888
2014    9       13    23  16    3.86   490.3    4.2      40.851
2014    9       13    23  22    3.86   490.2    4.2      40.813
2014    9       13    23  28    3.85   490.0    4.2      40.776
2014    9       13    23  33    3.85   489.9    4.2      40.739
2014    9       13    23  39    3.85   489.7    4.2      40.702
2014    9       13    23  45    3.84   489.6    4.2      40.665
2014    9       13    23  51    3.84   489.4    4.2      40.628
2014    9       13    23  56    3.84   489.2    4.2      40.591
2014    9       14     0   2    3.84   489.1    4.2      40.553
2014    9       14     0   8    3.83   488.9    4.2      40.516
2014    9       14     0  13    3.83   488.8    4.2      40.478
2014    9       14     0  19    3.83   488.6    4.2      40.440
2014    9       14     0  25    3.83   488.5    4.2      40.402
2014    9       14     0  30    3.82   488.3    4.2      40.364
2014    9       14     0  36    3.82   488.1    4.2      40.326
2014    9       14     0  42    3.82   488.0    4.2      40.288
2014    9       14     0  47    3.81   487.8    4.2      40.249
2014    9       14     0  53    3.81   487.7    4.2      40.211
2014    9       14     0  59    3.81   487.5    4.2      40.172
2014    9       14     1   4    3.81   487.4    4.2      40.133
2014    9       14     1  10    3.80   487.2    4.2      40.095
2014    9       14     1  16    3.80   487.0    4.2      40.056
2014    9       14     1  22    3.80   486.9    4.2      40.017
2014    9       14     1  27    3.80   486.7    4.2      39.978
2014    9       14     1  33    3.79   486.5    4.2      39.940
2014    9       14     1  39    3.79   486.4    4.2      39.901
2014    9       14     1  44    3.79   486.2    4.2      39.863
2014    9       14     1  50    3.79   486.0    4.2      39.824
2014    9       14     1  56    3.78   485.9    4.2      39.786
2014    9       14     2   1    3.78   485.7    4.2      39.748
2014    9       14     2   7    3.78   485.6    4.2      39.710
2014    9       14     2  13    3.78   485.4    4.2      39.672
2014    9       14     2  18    3.77   485.2    4.2      39.635
2014    9       14     2  24    3.77   485.1    4.2      39.597
2014    9       14     2  30    3.77   484.9    4.2      39.561
2014    9       14     2  35    3.77   484.7    4.2      39.524
2014    9       14     2  41    3.76   484.6    4.2      39.488
2014    9       14     2  47    3.76   484.4    4.2      39.452
2014    9       14     2  53    3.76   484.2    4.2      39.416
2014    9       14     2  58    3.76   484.1    4.2      39.381
2014    9       14     3   4    3.75   483.9    4.2      39.346
2014    9       14     3  10    3.75   483.8    4.2      39.312
2014    9       14     3  15    3.75   483.6    4.2      39.278
2014    9       14     3  21    3.75   483.4    4.2      39.244
2014    9       14     3  27    3.74   483.3    4.2      39.211
2014    9       14     3  32    3.74   483.1    4.2      39.178
2014    9       14     3  38    3.74   482.9    4.2      39.144
2014    9       14     3  44    3.74   482.8    4.2      39.111
2014    9       14     3  49    3.74   482.6    4.2      39.077
2014    9       14     3  55    3.73   482.4    4.2      39.044
2014    9       14     4   1    3.73   482.3    4.2      39.010
2014    9       14     4   6    3.73   482.1    4.2      38.977
2014    9       14     4  12    3.73   482.0    4.2      38.943
2014    9       14     4  18    3.72   481.8    4.2      38.909
2014    9       14     4  24    3.72   481.6    4.2      38.875
2014    9       14     4  29    3.72   481.5    4.2      38.841
2014    9       14     4  35    3.72   481.3    4.2      38.807
2014    9       14     4  41    3.71   481.1    4.2      38.774
2014    9       14     4  46    3.71   481.0    4.2      38.740
2014    9       14     4  52    3.71   480.8    4.2      38.706
2014    9       14     4  58    3.71   480.6    4.2      38.672
2014    9       14     5   3    3.71   480.5    4.2      38.639
2014    9       14     5   9    3.70   480.3    4.2      38.605
2014    9       14     5  15    3.70   480.1    4.2      38.572
2014    9       14     5  20    3.70   480.0    4.2      38.538
2014    9       14     5  26    3.70   479.8    4.2      38.505
2014    9       14     5  32    3.69   479.6    4.2      38.472
2014    9       14     5  37    3.69   479.4    4.2      38.439
2014    9       14     5  43    3.69   479.3    4.2      38.406
2014    9       14     5  49    3.69   479.1    4.2      38.373
2014    9       14     5  55    3.69   478.9    4.2      38.341
2014    9       14     6   0    3.68   478.8    4.2      38.309
2014    9       14     6   6    3.68   478.6    4.2      38.277
2014    9       14     6  12    3.68   478.4    4.2      38.245
2014    9       14     6  17    3.68   478.3    4.2      38.213
2014    9       14     6  23    3.67   478.1    4.2      38.182
2014    9       14     6  29    3.67   477.9    4.2      38.151
2014    9       14     6  34    3.67   477.7    4.2      38.120
2014    9       14     6  40    3.67   477.6    4.2      38.090
2014    9       14     6  46    3.67   477.4    4.2      38.059
2014    9       14     6  51    3.66   477.2    4.2      38.029
2014    9       14     6  57    3.66   477.0    4.2      37.998
2014    9       14     7   3    3.66   476.9    4.2      37.968
2014    9       14     7   8    3.66   476.7    4.2      37.938
2014    9       14     7  14    3.66   476.5    4.2      37.908
2014    9       14     7  20    3.65   476.4    4.2      37.878
2014    9       14     7  25    3.65   476.2    4.2      37.848
2014    9       14     7  31    3.65   476.0    4.2      37.818
2014    9       14     7  37    3.65   475.8    4.2      37.788
2014    9       14     7  43    3.65   475.7    4.2      37.758
2014    9       14     7  48    3.64   475.5    4.2      37.728
2014    9       14     7  54    3.64   475.3    4.2      37.697
2014    9       14     8   0    3.64   475.1    4.2      37.667
2014    9       14     8   5    3.64   475.0    4.2      37.636
2014    9       14     8  11    3.64   474.8    4.2      37.605
2014    9       14     8  17    3.63   474.6    4.2      37.574
2014    9       14     8  22    3.63   474.4    4.2      37.542
2014    9       14     8  28    3.63   474.3    4.2      37.511
2014    9       14     8  34    3.63   474.1    4.2      37.478
2014    9       14     8  39    3.63   473.9    4.2      37.446
2014    9       14     8  45    3.62   473.7    4.2      37.414
2014    9       14     8  51    3.62   473.6    4.2      37.381
2014    9       14     8  56    3.62   473.4    4.2      37.348
2014    9       14     9   2    3.62   473.2    4.2      37.315
2014    9       14     9   8    3.62   473.0    4.2      37.281
2014    9       14     9  14    3.61   472.8    4.2      37.247
2014    9       14     9  19    3.61   472.7    4.2      37.213
2014    9       14     9  25    3.61   472.5    4.2      37.179
2014    9       14     9  31    3.61   472.3    4.2      37.145
2014    9       14     9  36    3.61   472.1    4.2      37.110
2014    9       14     9  42    3.60   471.9    4.2      37.076
2014    9       14     9  48    3.60   471.7    4.2      37.041
2014    9       14     9  53    3.60   471.6    4.2      37.007
2014    9       14     9  59    3.60   471.4    4.2      36.972
2014    9       14    10   5    3.60   471.2    4.2      36.938
2014    9       14    10  10    3.59   471.0    4.2      36.904
2014    9       14    10  16    3.59   470.8    4.2      36.869
2014    9       14    10  22    3.59   470.6    4.2      36.834
2014    9       14    10  27    3.59   470.4    4.2      36.800
2014    9       14    10  33    3.59   470.3    4.2      36.765
2014    9       14    10  39    3.58   470.1    4.2      36.731
2014    9       14    10  45    3.58   469.9    4.2      36.696
2014    9       14    10  50    3.58   469.7    4.2      36.661
2014    9       14    10  56    3.58   469.5    4.2      36.626
2014    9       14    11   2    3.58   469.3    4.2      36.591
2014    9       14    11   7    3.57   469.1    4.2      36.556
2014    9       14    11  13    3.57   468.9    4.2      36.520
2014    9       14    11  19    3.57   468.8    4.2      36.485
2014    9       14    11  24    3.57   468.6    4.2      36.450
2014    9       14    11  30    3.57   468.4    4.2      36.414
2014    9       14    11  36    3.56   468.2    4.2      36.379
2014    9       14    11  41    3.56   468.0    4.2      36.344
2014    9       14    11  47    3.56   467.8    4.2      36.308
2014    9       14    11  53    3.56   467.6    4.2      36.273
2014    9       14    11  58    3.56   467.5    4.2      36.237
2014    9       14    12   4    3.56   467.3    4.2      36.201
2014    9       14    12  10    3.55   467.1    4.2      36.166
2014    9       14    12  16    3.55   466.9    4.2      36.130
2014    9       14    12  21    3.55   466.7    4.2      36.094
2014    9       14    12  27    3.55   466.5    4.2      36.058
2014    9       14    12  33    3.55   466.3    4.2      36.022
2014    9       14    12  38    3.54   466.1    4.2      35.986
2014    9       14    12  44    3.54   465.9    4.2      35.950
2014    9       14    12  50    3.54   465.7    4.2      35.914
2014    9       14    12  55    3.54   465.5    4.2      35.877
2014    9       14    13   1    3.54   465.3    4.2      35.841
2014    9       14    13   7    3.54   465.1    4.2      35.805
2014    9       14    13  12    3.53   464.9    4.2      35.769
2014    9       14    13  18    3.53   464.7    4.2      35.733
2014    9       14    13  24    3.53   464.5    4.2      35.697
2014    9       14    13  29    3.53   464.3    4.2      35.662
2014    9       14    13  35    3.53   464.1    4.2      35.626
2014    9       14    13  41    3.52   463.9    4.2      35.591
2014    9       14    13  47    3.52   463.7    4.2      35.556
2014    9       14    13  52    3.52   463.5    4.2      35.521
2014    9       14    13  58    3.52   463.3    4.2      35.487
2014    9       14    14   4    3.52   463.1    4.2      35.453
2014    9       14    14   9    3.52   462.9    4.2      35.419
2014    9       14    14  15    3.51   462.7    4.2      35.386
2014    9       14    14  21    3.51   462.5    4.2      35.354
2014    9       14    14  26    3.51   462.3    4.2      35.322
2014    9       14    14  32    3.51   462.1    4.2      35.290
2014    9       14    14  38    3.51   461.9    4.2      35.259
2014    9       14    14  43    3.51   461.7    4.2      35.228
2014    9       14    14  49    3.51   461.5    4.2      35.198
2014    9       14    14  55    3.50   461.3    4.2      35.168
2014    9       14    15   0    3.50   461.1    4.2      35.139
2014    9       14    15   6    3.50   460.9    4.2      35.109
2014    9       14    15  12    3.50   460.7    4.2      35.080
2014    9       14    15  17    3.50   460.5    4.2      35.051
2014    9       14    15  23    3.50   460.3    4.2      35.023
2014    9       14    15  29    3.50   460.1    4.2      34.994
2014    9       14    15  35    3.49   459.9    4.2      34.965
2014    9       14    15  40    3.49   459.8    4.2      34.936
2014    9       14    15  46    3.49   459.6    4.2      34.907
2014    9       14    15  52    3.49   459.4    4.2      34.878
2014    9       14    15  57    3.49   459.2    4.2      34.849
2014    9       14    16   3    3.49   459.0    4.2      34.820
2014    9       14    16   9    3.49   458.8    4.2      34.790
2014    9       14    16  14    3.48   458.6    4.2      34.761
2014    9       14    16  20    3.48   458.3    4.2      34.731
2014    9       14    16  26    3.48   458.1    4.2      34.702
2014    9       14    16  31    3.48   457.9    4.2      34.672
2014    9       14    16  37    3.48   457.7    4.2      34.642
2014    9       14    16  43    3.48   457.5    4.3      34.611
2014    9       14    16  48    3.48   457.3    4.3      34.581
2014    9       14    16  54    3.47   457.1    4.3      34.551
2014    9       14    17   0    3.47   456.9    4.3      34.521
2014    9       14    17   6    3.47   456.7    4.3      34.491
2014    9       14    17  11    3.47   456.5    4.3      34.461
2014    9       14    17  17    3.47   456.3    4.3      34.431
2014    9       14    17  23    3.47   456.1    4.3      34.401
2014    9       14    17  28    3.47   455.9    4.3      34.371
2014    9       14    17  34    3.46   455.7    4.3      34.341
2014    9       14    17  40    3.46   455.5    4.3      34.311
2014    9       14    17  45    3.46   455.3    4.3      34.281
2014    9       14    17  51    3.46   455.0    4.3      34.251
2014    9       14    17  57    3.46   454.8    4.3      34.221
2014    9       14    18   2    3.46   454.6    4.3      34.191
2014    9       14    18   8    3.46   454.4    4.3      34.161
2014    9       14    18  14    3.45   454.2    4.3      34.132
2014    9       14    18  19    3.45   454.0    4.3      34.102
2014    9       14    18  25    3.45   453.8    4.3      34.072
2014    9       14    18  31    3.45   453.6    4.3      34.042
2014    9       14    18  37    3.45   453.4    4.3      34.013
2014    9       14    18  42    3.45   453.2    4.3      33.983
2014    9       14    18  48    3.45   453.0    4.3      33.954
2014    9       14    18  54    3.45   452.8    4.3      33.925
2014    9       14    18  59    3.44   452.6    4.3      33.896
2014    9       14    19   5    3.44   452.3    4.3      33.867
2014    9       14    19  11    3.44   452.1    4.3      33.837
2014    9       14    19  16    3.44   451.9    4.3      33.809
2014    9       14    19  22    3.44   451.7    4.3      33.780
2014    9       14    19  28    3.44   451.5    4.3      33.751
2014    9       14    19  33    3.44   451.3    4.3      33.722
2014    9       14    19  39    3.44   451.1    4.3      33.694
2014    9       14    19  45    3.43   450.9    4.3      33.666
2014    9       14    19  50    3.43   450.7    4.3      33.637
2014    9       14    19  56    3.43   450.5    4.3      33.609
2014    9       14    20   2    3.43   450.2    4.3      33.580
2014    9       14    20   8    3.43   450.0    4.3      33.552
2014    9       14    20  13    3.43   449.8    4.3      33.524
2014    9       14    20  19    3.43   449.6    4.3      33.495
2014    9       14    20  25    3.43   449.4    4.3      33.467
2014    9       14    20  30    3.43   449.2    4.3      33.439
2014    9       14    20  36    3.42   449.0    4.3      33.411
2014    9       14    20  42    3.42   448.7    4.3      33.383
2014    9       14    20  47    3.42   448.5    4.3      33.355
2014    9       14    20  53    3.42   448.3    4.3      33.327
2014    9       14    20  59    3.42   448.1    4.3      33.299
2014    9       14    21   4    3.42   447.9    4.3      33.271
2014    9       14    21  10    3.42   447.7    4.3      33.243
2014    9       14    21  16    3.42   447.4    4.3      33.215
2014    9       14    21  21    3.42   447.2    4.3      33.187
2014    9       14    21  27    3.41   447.0    4.3      33.159
2014    9       14    21  33    3.41   446.8    4.3      33.131
2014    9       14    21  38    3.41   446.6    4.3      33.103
2014    9       14    21  44    3.41   446.4    4.3      33.075
2014    9       14    21  50    3.41   446.1    4.3      33.048
2014    9       14    21  56    3.41   445.9    4.4      33.020
2014    9       14    22   1    3.41   445.7    4.4      32.993
2014    9       14    22   7    3.41   445.5    4.4      32.965
2014    9       14    22  13    3.41   445.3    4.4      32.938
2014    9       14    22  18    3.41   445.1    4.4      32.911
2014    9       14    22  24    3.41   444.8    4.4      32.885
2014    9       14    22  30    3.40   444.6    4.4      32.858
2014    9       14    22  35    3.40   444.4    4.4      32.831
2014    9       14    22  41    3.40   444.2    4.4      32.804
2014    9       14    22  47    3.40   444.0    4.4      32.777
2014    9       14    22  52    3.40   443.8    4.4      32.750
2014    9       14    22  58    3.40   443.5    4.4      32.723
2014    9       14    23   4    3.40   443.3    4.4      32.696
2014    9       14    23   9    3.40   443.1    4.4      32.669
2014    9       14    23  15    3.40   442.9    4.4      32.642
2014    9       14    23  21    3.40   442.7    4.4      32.615
2014    9       14    23  27    3.40   442.5    4.4      32.587
2014    9       14    23  32    3.40   442.2    4.4      32.560
2014    9       14    23  38    3.39   442.0    4.4      32.532
2014    9       14    23  44    3.39   441.8    4.4      32.504
2014    9       14    23  49    3.39   441.6    4.4      32.476
2014    9       14    23  55    3.39   441.4    4.4      32.448
2014    9       15     0   1    3.39   441.2    4.4      32.420
