year    month   day   hour  minute  B_enl V_enl   n_enl       T_enl
[year] [month] [day] [hour][minute] [nT]  [km/s]  [cm-3]      [kK]
2014    9       21     0   3    6.77   465.3    7.1      42.451
2014    9       21     0   9    6.77   465.4    7.1      42.483
2014    9       21     0  14    6.78   465.5    7.1      42.514
2014    9       21     0  19    6.78   465.6    7.1      42.545
2014    9       21     0  25    6.78   465.7    7.1      42.576
2014    9       21     0  30    6.79   465.8    7.1      42.606
2014    9       21     0  35    6.79   465.9    7.1      42.635
2014    9       21     0  41    6.79   466.0    7.1      42.664
2014    9       21     0  46    6.79   466.1    7.1      42.692
2014    9       21     0  51    6.80   466.2    7.1      42.720
2014    9       21     0  57    6.80   466.4    7.1      42.748
2014    9       21     1   2    6.80   466.5    7.1      42.775
2014    9       21     1   7    6.80   466.6    7.1      42.802
2014    9       21     1  13    6.81   466.7    7.1      42.828
2014    9       21     1  18    6.81   466.8    7.1      42.854
2014    9       21     1  23    6.81   466.9    7.1      42.880
2014    9       21     1  29    6.81   467.0    7.1      42.906
2014    9       21     1  34    6.82   467.1    7.1      42.931
2014    9       21     1  40    6.82   467.2    7.1      42.956
2014    9       21     1  45    6.82   467.3    7.1      42.981
2014    9       21     1  50    6.83   467.5    7.1      43.006
2014    9       21     1  56    6.83   467.6    7.1      43.031
2014    9       21     2   1    6.83   467.7    7.1      43.056
2014    9       21     2   6    6.83   467.8    7.1      43.081
2014    9       21     2  12    6.84   467.9    7.1      43.105
2014    9       21     2  17    6.84   468.0    7.1      43.130
2014    9       21     2  22    6.84   468.1    7.1      43.156
2014    9       21     2  28    6.84   468.2    7.1      43.181
2014    9       21     2  33    6.85   468.3    7.1      43.207
2014    9       21     2  38    6.85   468.5    7.1      43.233
2014    9       21     2  44    6.85   468.6    7.1      43.260
2014    9       21     2  49    6.85   468.7    7.1      43.286
2014    9       21     2  54    6.86   468.8    7.1      43.314
2014    9       21     3   0    6.86   468.9    7.1      43.342
2014    9       21     3   5    6.86   469.0    7.1      43.370
2014    9       21     3  11    6.87   469.1    7.1      43.399
2014    9       21     3  16    6.87   469.3    7.1      43.429
2014    9       21     3  21    6.87   469.4    7.1      43.459
2014    9       21     3  27    6.87   469.5    7.1      43.491
2014    9       21     3  32    6.88   469.6    7.1      43.523
2014    9       21     3  37    6.88   469.7    7.1      43.557
2014    9       21     3  43    6.88   469.9    7.1      43.591
2014    9       21     3  48    6.88   470.0    7.1      43.627
2014    9       21     3  53    6.89   470.1    7.1      43.663
2014    9       21     3  59    6.89   470.2    7.1      43.700
2014    9       21     4   4    6.89   470.3    7.1      43.738
2014    9       21     4   9    6.90   470.5    7.1      43.778
2014    9       21     4  15    6.90   470.6    7.1      43.819
2014    9       21     4  20    6.90   470.7    7.1      43.861
2014    9       21     4  25    6.90   470.9    7.1      43.905
2014    9       21     4  31    6.91   471.0    7.1      43.950
2014    9       21     4  36    6.91   471.1    7.1      43.997
2014    9       21     4  41    6.91   471.3    7.1      44.044
2014    9       21     4  47    6.91   471.4    7.1      44.092
2014    9       21     4  52    6.92   471.5    7.1      44.140
2014    9       21     4  58    6.92   471.7    7.2      44.189
2014    9       21     5   3    6.92   471.8    7.2      44.239
2014    9       21     5   8    6.93   472.0    7.2      44.291
2014    9       21     5  14    6.93   472.1    7.2      44.344
2014    9       21     5  19    6.93   472.3    7.2      44.398
2014    9       21     5  24    6.93   472.4    7.2      44.452
2014    9       21     5  30    6.94   472.6    7.2      44.507
2014    9       21     5  35    6.94   472.7    7.2      44.563
2014    9       21     5  40    6.94   472.9    7.2      44.618
2014    9       21     5  46    6.94   473.0    7.2      44.672
2014    9       21     5  51    6.95   473.2    7.2      44.724
2014    9       21     5  56    6.95   473.3    7.2      44.775
2014    9       21     6   2    6.95   473.5    7.2      44.824
2014    9       21     6   7    6.95   473.6    7.2      44.873
2014    9       21     6  12    6.96   473.8    7.2      44.920
2014    9       21     6  18    6.96   473.9    7.2      44.965
2014    9       21     6  23    6.96   474.1    7.2      45.010
2014    9       21     6  29    6.96   474.2    7.2      45.053
2014    9       21     6  34    6.97   474.4    7.2      45.095
2014    9       21     6  39    6.97   474.6    7.2      45.136
2014    9       21     6  45    6.97   474.7    7.2      45.176
2014    9       21     6  50    6.97   474.9    7.2      45.215
2014    9       21     6  55    6.97   475.0    7.2      45.252
2014    9       21     7   1    6.98   475.2    7.1      45.289
2014    9       21     7   6    6.98   475.3    7.1      45.326
2014    9       21     7  11    6.98   475.5    7.1      45.361
2014    9       21     7  17    6.98   475.7    7.1      45.395
2014    9       21     7  22    6.98   475.8    7.1      45.429
2014    9       21     7  27    6.99   476.0    7.1      45.462
2014    9       21     7  33    6.99   476.1    7.1      45.495
2014    9       21     7  38    6.99   476.3    7.1      45.526
2014    9       21     7  43    6.99   476.5    7.1      45.558
2014    9       21     7  49    6.99   476.6    7.1      45.588
2014    9       21     7  54    6.99   476.8    7.1      45.618
2014    9       21     8   0    7.00   476.9    7.1      45.648
2014    9       21     8   5    7.00   477.1    7.1      45.677
2014    9       21     8  10    7.00   477.3    7.1      45.706
2014    9       21     8  16    7.00   477.4    7.1      45.734
2014    9       21     8  21    7.00   477.6    7.1      45.762
2014    9       21     8  26    7.00   477.7    7.1      45.789
2014    9       21     8  32    7.01   477.9    7.1      45.816
2014    9       21     8  37    7.01   478.1    7.1      45.843
2014    9       21     8  42    7.01   478.2    7.1      45.870
2014    9       21     8  48    7.01   478.4    7.1      45.897
2014    9       21     8  53    7.01   478.5    7.0      45.923
2014    9       21     8  58    7.01   478.7    7.0      45.949
2014    9       21     9   4    7.02   478.8    7.0      45.976
2014    9       21     9   9    7.02   479.0    7.0      46.002
2014    9       21     9  14    7.02   479.2    7.0      46.029
2014    9       21     9  20    7.02   479.3    7.0      46.055
2014    9       21     9  25    7.02   479.5    7.0      46.082
2014    9       21     9  30    7.02   479.6    7.0      46.109
2014    9       21     9  36    7.02   479.8    7.0      46.137
2014    9       21     9  41    7.03   479.9    7.0      46.165
2014    9       21     9  47    7.03   480.1    7.0      46.194
2014    9       21     9  52    7.03   480.2    7.0      46.223
2014    9       21     9  57    7.03   480.4    7.0      46.253
2014    9       21    10   3    7.03   480.6    7.0      46.284
2014    9       21    10   8    7.03   480.7    7.0      46.315
2014    9       21    10  13    7.04   480.9    7.0      46.348
2014    9       21    10  19    7.04   481.0    7.0      46.382
2014    9       21    10  24    7.04   481.2    7.0      46.416
2014    9       21    10  29    7.04   481.3    7.0      46.451
2014    9       21    10  35    7.04   481.5    7.0      46.487
2014    9       21    10  40    7.04   481.6    7.0      46.524
2014    9       21    10  45    7.05   481.8    7.0      46.563
2014    9       21    10  51    7.05   482.0    7.0      46.603
2014    9       21    10  56    7.05   482.1    7.0      46.644
2014    9       21    11   1    7.05   482.3    7.0      46.686
2014    9       21    11   7    7.05   482.5    7.0      46.728
2014    9       21    11  12    7.06   482.7    7.0      46.772
2014    9       21    11  17    7.06   482.8    7.0      46.815
2014    9       21    11  23    7.06   483.0    7.0      46.859
2014    9       21    11  28    7.06   483.2    7.0      46.903
2014    9       21    11  34    7.06   483.4    7.0      46.947
2014    9       21    11  39    7.06   483.6    7.0      46.991
2014    9       21    11  44    7.07   483.7    7.0      47.036
2014    9       21    11  50    7.07   483.9    7.0      47.081
2014    9       21    11  55    7.07   484.1    7.0      47.125
2014    9       21    12   0    7.07   484.3    7.0      47.169
2014    9       21    12   6    7.07   484.5    7.0      47.211
2014    9       21    12  11    7.07   484.7    7.0      47.253
2014    9       21    12  16    7.07   484.9    6.9      47.294
2014    9       21    12  22    7.08   485.1    6.9      47.335
2014    9       21    12  27    7.08   485.3    6.9      47.376
2014    9       21    12  32    7.08   485.5    6.9      47.416
2014    9       21    12  38    7.08   485.7    6.9      47.455
2014    9       21    12  43    7.08   485.9    6.9      47.494
2014    9       21    12  48    7.08   486.1    6.9      47.533
2014    9       21    12  54    7.08   486.3    6.9      47.571
2014    9       21    12  59    7.09   486.5    6.9      47.608
2014    9       21    13   5    7.09   486.7    6.9      47.644
2014    9       21    13  10    7.09   486.9    6.9      47.679
2014    9       21    13  15    7.09   487.1    6.9      47.713
2014    9       21    13  21    7.09   487.3    6.9      47.746
2014    9       21    13  26    7.09   487.5    6.9      47.779
2014    9       21    13  31    7.09   487.7    6.9      47.810
2014    9       21    13  37    7.09   487.9    6.9      47.841
2014    9       21    13  42    7.09   488.1    6.9      47.870
2014    9       21    13  47    7.09   488.3    6.9      47.899
2014    9       21    13  53    7.10   488.5    6.9      47.928
2014    9       21    13  58    7.10   488.7    6.9      47.955
2014    9       21    14   3    7.10   488.9    6.9      47.982
2014    9       21    14   9    7.10   489.1    6.8      48.008
2014    9       21    14  14    7.10   489.3    6.8      48.034
2014    9       21    14  19    7.10   489.5    6.8      48.059
2014    9       21    14  25    7.10   489.7    6.8      48.084
2014    9       21    14  30    7.10   489.9    6.8      48.108
2014    9       21    14  35    7.10   490.1    6.8      48.132
2014    9       21    14  41    7.10   490.3    6.8      48.155
2014    9       21    14  46    7.10   490.5    6.8      48.178
2014    9       21    14  52    7.10   490.7    6.8      48.200
2014    9       21    14  57    7.10   490.9    6.8      48.222
2014    9       21    15   2    7.10   491.1    6.8      48.243
2014    9       21    15   8    7.10   491.3    6.8      48.265
2014    9       21    15  13    7.10   491.5    6.8      48.285
2014    9       21    15  18    7.10   491.7    6.8      48.306
2014    9       21    15  24    7.10   491.9    6.7      48.326
2014    9       21    15  29    7.10   492.1    6.7      48.346
2014    9       21    15  34    7.10   492.3    6.7      48.365
2014    9       21    15  40    7.10   492.5    6.7      48.384
2014    9       21    15  45    7.10   492.7    6.7      48.403
2014    9       21    15  50    7.10   492.9    6.7      48.422
2014    9       21    15  56    7.10   493.1    6.7      48.440
2014    9       21    16   1    7.10   493.3    6.7      48.459
2014    9       21    16   6    7.10   493.5    6.7      48.477
2014    9       21    16  12    7.10   493.6    6.7      48.495
2014    9       21    16  17    7.10   493.8    6.7      48.513
2014    9       21    16  23    7.10   494.0    6.7      48.531
2014    9       21    16  28    7.10   494.2    6.7      48.550
2014    9       21    16  33    7.10   494.4    6.7      48.569
2014    9       21    16  39    7.10   494.5    6.6      48.589
2014    9       21    16  44    7.10   494.7    6.6      48.609
2014    9       21    16  49    7.10   494.9    6.6      48.630
2014    9       21    16  55    7.10   495.1    6.6      48.651
2014    9       21    17   0    7.10   495.2    6.6      48.673
2014    9       21    17   5    7.10   495.4    6.6      48.695
2014    9       21    17  11    7.10   495.6    6.6      48.718
2014    9       21    17  16    7.10   495.8    6.6      48.742
2014    9       21    17  21    7.10   495.9    6.6      48.767
2014    9       21    17  27    7.10   496.1    6.6      48.792
2014    9       21    17  32    7.10   496.3    6.6      48.818
2014    9       21    17  37    7.10   496.4    6.6      48.844
2014    9       21    17  43    7.11   496.6    6.6      48.871
2014    9       21    17  48    7.11   496.8    6.6      48.898
2014    9       21    17  53    7.11   497.0    6.6      48.926
2014    9       21    17  59    7.11   497.1    6.6      48.953
2014    9       21    18   4    7.11   497.3    6.6      48.982
2014    9       21    18  10    7.11   497.5    6.5      49.010
2014    9       21    18  15    7.11   497.6    6.5      49.038
2014    9       21    18  20    7.11   497.8    6.5      49.066
2014    9       21    18  26    7.11   498.0    6.5      49.094
2014    9       21    18  31    7.11   498.2    6.5      49.120
2014    9       21    18  36    7.11   498.4    6.5      49.146
2014    9       21    18  42    7.11   498.5    6.5      49.171
2014    9       21    18  47    7.11   498.7    6.5      49.195
2014    9       21    18  52    7.11   498.9    6.5      49.219
2014    9       21    18  58    7.11   499.1    6.5      49.242
2014    9       21    19   3    7.11   499.2    6.5      49.264
2014    9       21    19   8    7.11   499.4    6.5      49.285
2014    9       21    19  14    7.11   499.6    6.5      49.306
2014    9       21    19  19    7.11   499.8    6.5      49.326
2014    9       21    19  24    7.11   500.0    6.5      49.346
2014    9       21    19  30    7.11   500.1    6.5      49.365
2014    9       21    19  35    7.11   500.3    6.4      49.383
2014    9       21    19  41    7.11   500.5    6.4      49.401
2014    9       21    19  46    7.11   500.7    6.4      49.418
2014    9       21    19  51    7.11   500.9    6.4      49.435
2014    9       21    19  57    7.11   501.0    6.4      49.451
2014    9       21    20   2    7.11   501.2    6.4      49.467
2014    9       21    20   7    7.11   501.4    6.4      49.482
2014    9       21    20  13    7.11   501.6    6.4      49.496
2014    9       21    20  18    7.11   501.8    6.4      49.511
2014    9       21    20  23    7.11   501.9    6.4      49.525
2014    9       21    20  29    7.10   502.1    6.4      49.538
2014    9       21    20  34    7.10   502.3    6.4      49.551
2014    9       21    20  39    7.10   502.5    6.4      49.564
2014    9       21    20  45    7.10   502.7    6.4      49.576
2014    9       21    20  50    7.10   502.8    6.3      49.588
2014    9       21    20  55    7.10   503.0    6.3      49.599
2014    9       21    21   1    7.10   503.2    6.3      49.611
2014    9       21    21   6    7.10   503.4    6.3      49.622
2014    9       21    21  11    7.10   503.5    6.3      49.632
2014    9       21    21  17    7.10   503.7    6.3      49.643
2014    9       21    21  22    7.10   503.9    6.3      49.653
2014    9       21    21  28    7.10   504.1    6.3      49.664
2014    9       21    21  33    7.10   504.2    6.3      49.674
2014    9       21    21  38    7.10   504.4    6.3      49.684
2014    9       21    21  44    7.10   504.6    6.3      49.694
2014    9       21    21  49    7.10   504.8    6.3      49.704
2014    9       21    21  54    7.10   504.9    6.3      49.714
2014    9       21    22   0    7.10   505.1    6.3      49.723
2014    9       21    22   5    7.09   505.3    6.3      49.733
2014    9       21    22  10    7.09   505.5    6.2      49.743
2014    9       21    22  16    7.09   505.6    6.2      49.753
2014    9       21    22  21    7.09   505.8    6.2      49.764
2014    9       21    22  26    7.09   506.0    6.2      49.774
2014    9       21    22  32    7.09   506.2    6.2      49.784
2014    9       21    22  37    7.09   506.3    6.2      49.794
2014    9       21    22  42    7.09   506.5    6.2      49.805
2014    9       21    22  48    7.09   506.7    6.2      49.816
2014    9       21    22  53    7.09   506.8    6.2      49.827
2014    9       21    22  59    7.09   507.0    6.2      49.838
2014    9       21    23   4    7.09   507.2    6.2      49.849
2014    9       21    23   9    7.09   507.3    6.2      49.861
2014    9       21    23  15    7.09   507.5    6.2      49.873
2014    9       21    23  20    7.08   507.7    6.2      49.885
2014    9       21    23  25    7.08   507.8    6.2      49.897
2014    9       21    23  31    7.08   508.0    6.2      49.910
2014    9       21    23  36    7.08   508.2    6.2      49.923
2014    9       21    23  41    7.08   508.3    6.2      49.938
2014    9       21    23  47    7.08   508.5    6.2      49.952
2014    9       21    23  52    7.08   508.7    6.1      49.967
2014    9       21    23  57    7.08   508.8    6.1      49.983
2014    9       22     0   3    7.08   509.0    6.1      49.998
2014    9       22     0   8    7.08   509.1    6.1      50.014
2014    9       22     0  13    7.08   509.3    6.1      50.030
2014    9       22     0  19    7.07   509.4    6.1      50.046
2014    9       22     0  24    7.07   509.6    6.1      50.062
2014    9       22     0  29    7.07   509.7    6.1      50.078
2014    9       22     0  35    7.07   509.9    6.1      50.095
2014    9       22     0  40    7.07   510.1    6.1      50.111
2014    9       22     0  46    7.07   510.2    6.1      50.127
2014    9       22     0  51    7.07   510.4    6.1      50.144
2014    9       22     0  56    7.07   510.5    6.1      50.160
2014    9       22     1   2    7.07   510.6    6.1      50.175
2014    9       22     1   7    7.07   510.8    6.1      50.190
2014    9       22     1  12    7.07   510.9    6.1      50.205
2014    9       22     1  18    7.07   511.1    6.1      50.220
2014    9       22     1  23    7.06   511.2    6.0      50.234
2014    9       22     1  28    7.06   511.4    6.0      50.248
2014    9       22     1  34    7.06   511.5    6.0      50.261
2014    9       22     1  39    7.06   511.6    6.0      50.274
2014    9       22     1  44    7.06   511.8    6.0      50.286
2014    9       22     1  50    7.06   511.9    6.0      50.298
2014    9       22     1  55    7.06   512.1    6.0      50.309
2014    9       22     2   0    7.06   512.2    6.0      50.320
2014    9       22     2   6    7.06   512.3    6.0      50.331
2014    9       22     2  11    7.06   512.5    6.0      50.341
2014    9       22     2  17    7.06   512.6    6.0      50.351
2014    9       22     2  22    7.06   512.8    6.0      50.361
2014    9       22     2  27    7.05   512.9    6.0      50.370
2014    9       22     2  33    7.05   513.0    6.0      50.379
2014    9       22     2  38    7.05   513.2    6.0      50.387
2014    9       22     2  43    7.05   513.3    6.0      50.395
2014    9       22     2  49    7.05   513.4    5.9      50.402
2014    9       22     2  54    7.05   513.6    5.9      50.410
2014    9       22     2  59    7.05   513.7    5.9      50.416
2014    9       22     3   5    7.05   513.8    5.9      50.423
2014    9       22     3  10    7.05   514.0    5.9      50.429
2014    9       22     3  15    7.05   514.1    5.9      50.435
2014    9       22     3  21    7.05   514.2    5.9      50.441
2014    9       22     3  26    7.05   514.4    5.9      50.446
2014    9       22     3  31    7.04   514.5    5.9      50.451
2014    9       22     3  37    7.04   514.6    5.9      50.456
2014    9       22     3  42    7.04   514.7    5.9      50.460
2014    9       22     3  47    7.04   514.9    5.9      50.464
2014    9       22     3  53    7.04   515.0    5.9      50.468
2014    9       22     3  58    7.04   515.1    5.9      50.472
2014    9       22     4   4    7.04   515.2    5.9      50.476
2014    9       22     4   9    7.04   515.4    5.9      50.479
2014    9       22     4  14    7.04   515.5    5.9      50.482
2014    9       22     4  20    7.04   515.6    5.8      50.486
2014    9       22     4  25    7.04   515.7    5.8      50.489
2014    9       22     4  30    7.03   515.9    5.8      50.492
2014    9       22     4  36    7.03   516.0    5.8      50.495
2014    9       22     4  41    7.03   516.1    5.8      50.497
2014    9       22     4  46    7.03   516.2    5.8      50.500
2014    9       22     4  52    7.03   516.3    5.8      50.503
2014    9       22     4  57    7.03   516.5    5.8      50.506
2014    9       22     5   2    7.03   516.6    5.8      50.509
2014    9       22     5   8    7.03   516.7    5.8      50.512
2014    9       22     5  13    7.03   516.8    5.8      50.516
2014    9       22     5  18    7.03   516.9    5.8      50.519
2014    9       22     5  24    7.03   517.1    5.8      50.522
2014    9       22     5  29    7.03   517.2    5.8      50.526
2014    9       22     5  34    7.02   517.3    5.8      50.530
2014    9       22     5  40    7.02   517.4    5.8      50.534
2014    9       22     5  45    7.02   517.5    5.8      50.538
2014    9       22     5  51    7.02   517.7    5.8      50.542
2014    9       22     5  56    7.02   517.8    5.8      50.547
2014    9       22     6   1    7.02   517.9    5.8      50.553
2014    9       22     6   7    7.02   518.0    5.8      50.558
2014    9       22     6  12    7.02   518.1    5.8      50.563
2014    9       22     6  17    7.02   518.3    5.8      50.569
2014    9       22     6  23    7.02   518.4    5.7      50.575
2014    9       22     6  28    7.02   518.5    5.7      50.581
2014    9       22     6  33    7.02   518.6    5.7      50.587
2014    9       22     6  39    7.02   518.7    5.7      50.594
2014    9       22     6  44    7.01   518.9    5.7      50.601
2014    9       22     6  49    7.01   519.0    5.7      50.609
2014    9       22     6  55    7.01   519.1    5.7      50.616
2014    9       22     7   0    7.01   519.2    5.7      50.623
2014    9       22     7   5    7.01   519.3    5.7      50.631
2014    9       22     7  11    7.01   519.5    5.7      50.638
2014    9       22     7  16    7.01   519.6    5.7      50.645
2014    9       22     7  21    7.01   519.7    5.7      50.652
2014    9       22     7  27    7.01   519.8    5.7      50.660
2014    9       22     7  32    7.01   519.9    5.7      50.667
2014    9       22     7  37    7.01   520.0    5.7      50.675
2014    9       22     7  43    7.00   520.1    5.7      50.683
2014    9       22     7  48    7.00   520.2    5.7      50.691
2014    9       22     7  54    7.00   520.3    5.7      50.699
2014    9       22     7  59    7.00   520.4    5.7      50.708
2014    9       22     8   4    7.00   520.5    5.7      50.717
2014    9       22     8  10    7.00   520.6    5.7      50.727
2014    9       22     8  15    7.00   520.8    5.7      50.737
2014    9       22     8  20    7.00   520.9    5.7      50.748
2014    9       22     8  26    7.00   521.0    5.7      50.759
2014    9       22     8  31    7.00   521.1    5.7      50.770
2014    9       22     8  36    7.00   521.2    5.7      50.782
2014    9       22     8  42    6.99   521.3    5.7      50.794
2014    9       22     8  47    6.99   521.4    5.7      50.806
2014    9       22     8  52    6.99   521.5    5.7      50.818
2014    9       22     8  58    6.99   521.6    5.7      50.831
2014    9       22     9   3    6.99   521.7    5.7      50.844
2014    9       22     9   8    6.99   521.8    5.7      50.857
2014    9       22     9  14    6.99   521.9    5.6      50.870
2014    9       22     9  19    6.99   522.1    5.6      50.883
2014    9       22     9  24    6.99   522.2    5.6      50.895
2014    9       22     9  30    6.99   522.3    5.6      50.908
2014    9       22     9  35    6.99   522.4    5.6      50.920
2014    9       22     9  41    6.99   522.5    5.6      50.931
2014    9       22     9  46    6.99   522.6    5.6      50.942
2014    9       22     9  51    6.99   522.7    5.6      50.953
2014    9       22     9  57    6.98   522.8    5.6      50.963
2014    9       22    10   2    6.98   522.9    5.6      50.973
2014    9       22    10   7    6.98   523.1    5.6      50.983
2014    9       22    10  13    6.98   523.2    5.6      50.992
2014    9       22    10  18    6.98   523.3    5.6      51.001
2014    9       22    10  23    6.98   523.4    5.6      51.010
2014    9       22    10  29    6.98   523.5    5.6      51.018
2014    9       22    10  34    6.98   523.6    5.6      51.026
2014    9       22    10  39    6.98   523.7    5.6      51.034
2014    9       22    10  45    6.98   523.8    5.6      51.042
2014    9       22    10  50    6.98   523.9    5.6      51.049
2014    9       22    10  55    6.98   524.1    5.6      51.057
2014    9       22    11   1    6.98   524.2    5.6      51.064
2014    9       22    11   6    6.97   524.3    5.6      51.070
2014    9       22    11  12    6.97   524.4    5.6      51.077
2014    9       22    11  17    6.97   524.5    5.6      51.084
2014    9       22    11  22    6.97   524.6    5.6      51.090
2014    9       22    11  28    6.97   524.7    5.5      51.096
2014    9       22    11  33    6.97   524.8    5.5      51.102
2014    9       22    11  38    6.97   524.9    5.5      51.107
2014    9       22    11  44    6.97   525.1    5.5      51.113
2014    9       22    11  49    6.97   525.2    5.5      51.118
2014    9       22    11  54    6.97   525.3    5.5      51.123
2014    9       22    12   0    6.97   525.4    5.5      51.128
2014    9       22    12   5    6.97   525.5    5.5      51.133
2014    9       22    12  10    6.96   525.6    5.5      51.138
2014    9       22    12  16    6.96   525.7    5.5      51.142
2014    9       22    12  21    6.96   525.8    5.5      51.146
2014    9       22    12  26    6.96   525.9    5.5      51.150
2014    9       22    12  32    6.96   526.0    5.5      51.154
2014    9       22    12  37    6.96   526.2    5.5      51.157
2014    9       22    12  42    6.96   526.3    5.5      51.161
2014    9       22    12  48    6.96   526.4    5.5      51.164
2014    9       22    12  53    6.96   526.5    5.5      51.167
2014    9       22    12  58    6.96   526.6    5.5      51.170
2014    9       22    13   4    6.96   526.7    5.5      51.172
2014    9       22    13   9    6.96   526.8    5.5      51.175
2014    9       22    13  15    6.96   526.9    5.5      51.177
2014    9       22    13  20    6.95   527.0    5.5      51.178
2014    9       22    13  25    6.95   527.1    5.5      51.180
2014    9       22    13  31    6.95   527.2    5.5      51.181
2014    9       22    13  36    6.95   527.3    5.5      51.183
2014    9       22    13  41    6.95   527.4    5.5      51.184
2014    9       22    13  47    6.95   527.6    5.4      51.184
2014    9       22    13  52    6.95   527.7    5.4      51.185
2014    9       22    13  57    6.95   527.8    5.4      51.185
2014    9       22    14   3    6.95   527.9    5.4      51.185
2014    9       22    14   8    6.95   528.0    5.4      51.184
2014    9       22    14  13    6.95   528.1    5.4      51.184
2014    9       22    14  19    6.94   528.2    5.4      51.183
2014    9       22    14  24    6.94   528.3    5.4      51.182
2014    9       22    14  29    6.94   528.4    5.4      51.181
2014    9       22    14  35    6.94   528.5    5.4      51.180
2014    9       22    14  40    6.94   528.6    5.4      51.179
2014    9       22    14  45    6.94   528.7    5.4      51.178
2014    9       22    14  51    6.94   528.8    5.4      51.177
2014    9       22    14  56    6.94   528.9    5.4      51.176
2014    9       22    15   2    6.94   529.0    5.4      51.174
2014    9       22    15   7    6.94   529.1    5.4      51.173
2014    9       22    15  12    6.93   529.2    5.4      51.172
2014    9       22    15  18    6.93   529.2    5.4      51.172
2014    9       22    15  23    6.93   529.3    5.4      51.171
2014    9       22    15  28    6.93   529.4    5.4      51.171
2014    9       22    15  34    6.93   529.5    5.4      51.171
2014    9       22    15  39    6.93   529.6    5.4      51.171
2014    9       22    15  44    6.93   529.7    5.4      51.172
2014    9       22    15  50    6.93   529.8    5.4      51.173
2014    9       22    15  55    6.93   529.9    5.4      51.174
2014    9       22    16   0    6.93   530.0    5.4      51.176
2014    9       22    16   6    6.93   530.1    5.4      51.178
2014    9       22    16  11    6.92   530.2    5.4      51.180
2014    9       22    16  16    6.92   530.3    5.4      51.183
2014    9       22    16  22    6.92   530.4    5.4      51.186
2014    9       22    16  27    6.92   530.4    5.4      51.190
2014    9       22    16  32    6.92   530.5    5.4      51.195
2014    9       22    16  38    6.92   530.6    5.4      51.199
2014    9       22    16  43    6.92   530.7    5.3      51.204
2014    9       22    16  49    6.92   530.8    5.3      51.209
2014    9       22    16  54    6.92   530.9    5.3      51.213
2014    9       22    16  59    6.92   531.0    5.3      51.218
2014    9       22    17   5    6.92   531.1    5.3      51.222
2014    9       22    17  10    6.91   531.2    5.3      51.227
2014    9       22    17  15    6.91   531.3    5.3      51.231
2014    9       22    17  21    6.91   531.4    5.3      51.235
2014    9       22    17  26    6.91   531.5    5.3      51.239
2014    9       22    17  31    6.91   531.6    5.3      51.243
2014    9       22    17  37    6.91   531.7    5.3      51.247
2014    9       22    17  42    6.91   531.8    5.3      51.251
2014    9       22    17  47    6.91   531.8    5.3      51.255
2014    9       22    17  53    6.91   531.9    5.3      51.260
2014    9       22    17  58    6.91   532.0    5.3      51.264
2014    9       22    18   3    6.91   532.1    5.3      51.268
2014    9       22    18   9    6.91   532.2    5.3      51.272
2014    9       22    18  14    6.90   532.3    5.3      51.277
2014    9       22    18  20    6.90   532.4    5.3      51.281
2014    9       22    18  25    6.90   532.5    5.3      51.286
2014    9       22    18  30    6.90   532.6    5.3      51.290
2014    9       22    18  36    6.90   532.7    5.3      51.295
2014    9       22    18  41    6.90   532.8    5.3      51.299
2014    9       22    18  46    6.90   532.9    5.3      51.304
2014    9       22    18  52    6.90   533.0    5.3      51.308
2014    9       22    18  57    6.90   533.0    5.3      51.313
2014    9       22    19   2    6.90   533.1    5.3      51.318
2014    9       22    19   8    6.90   533.2    5.3      51.322
2014    9       22    19  13    6.89   533.3    5.3      51.326
2014    9       22    19  18    6.89   533.4    5.2      51.331
2014    9       22    19  24    6.89   533.5    5.2      51.335
2014    9       22    19  29    6.89   533.6    5.2      51.339
2014    9       22    19  34    6.89   533.7    5.2      51.343
2014    9       22    19  40    6.89   533.8    5.2      51.347
2014    9       22    19  45    6.89   533.8    5.2      51.351
2014    9       22    19  50    6.89   533.9    5.2      51.354
2014    9       22    19  56    6.89   534.0    5.2      51.358
2014    9       22    20   1    6.89   534.1    5.2      51.361
2014    9       22    20   7    6.89   534.2    5.2      51.364
2014    9       22    20  12    6.88   534.3    5.2      51.367
2014    9       22    20  17    6.88   534.4    5.2      51.370
2014    9       22    20  23    6.88   534.4    5.2      51.373
2014    9       22    20  28    6.88   534.5    5.2      51.376
2014    9       22    20  33    6.88   534.6    5.2      51.378
2014    9       22    20  39    6.88   534.7    5.2      51.380
2014    9       22    20  44    6.88   534.8    5.2      51.382
2014    9       22    20  49    6.88   534.9    5.2      51.384
2014    9       22    20  55    6.88   534.9    5.2      51.386
2014    9       22    21   0    6.88   535.0    5.2      51.388
2014    9       22    21   5    6.88   535.1    5.2      51.390
2014    9       22    21  11    6.87   535.2    5.2      51.392
2014    9       22    21  16    6.87   535.3    5.2      51.394
2014    9       22    21  21    6.87   535.4    5.2      51.395
2014    9       22    21  27    6.87   535.4    5.2      51.396
2014    9       22    21  32    6.87   535.5    5.2      51.397
2014    9       22    21  37    6.87   535.6    5.2      51.398
2014    9       22    21  43    6.87   535.7    5.2      51.399
2014    9       22    21  48    6.87   535.8    5.2      51.399
2014    9       22    21  54    6.87   535.8    5.2      51.400
2014    9       22    21  59    6.87   535.9    5.2      51.400
2014    9       22    22   4    6.87   536.0    5.2      51.401
2014    9       22    22  10    6.87   536.1    5.2      51.401
2014    9       22    22  15    6.86   536.2    5.2      51.400
2014    9       22    22  20    6.86   536.2    5.2      51.400
2014    9       22    22  26    6.86   536.3    5.2      51.399
2014    9       22    22  31    6.86   536.4    5.2      51.399
2014    9       22    22  36    6.86   536.5    5.2      51.398
2014    9       22    22  42    6.86   536.5    5.2      51.397
2014    9       22    22  47    6.86   536.6    5.2      51.396
2014    9       22    22  52    6.86   536.7    5.2      51.395
2014    9       22    22  58    6.86   536.8    5.2      51.393
2014    9       22    23   3    6.86   536.9    5.2      51.391
2014    9       22    23   8    6.86   536.9    5.1      51.390
2014    9       22    23  14    6.86   537.0    5.1      51.388
2014    9       22    23  19    6.86   537.1    5.1      51.386
2014    9       22    23  24    6.86   537.2    5.1      51.383
2014    9       22    23  30    6.85   537.2    5.1      51.381
2014    9       22    23  35    6.85   537.3    5.1      51.379
2014    9       22    23  41    6.85   537.4    5.1      51.376
2014    9       22    23  46    6.85   537.5    5.1      51.374
2014    9       22    23  51    6.85   537.5    5.1      51.371
2014    9       22    23  57    6.85   537.6    5.1      51.369
2014    9       23     0   2    6.85   537.7    5.1      51.367
2014    9       23     0   7    6.85   537.8    5.1      51.364
2014    9       23     0  13    6.85   537.8    5.1      51.362
2014    9       23     0  18    6.85   537.9    5.1      51.360
2014    9       23     0  23    6.85   538.0    5.1      51.358
2014    9       23     0  29    6.85   538.1    5.1      51.357
2014    9       23     0  34    6.85   538.1    5.1      51.355
2014    9       23     0  39    6.85   538.2    5.1      51.354
2014    9       23     0  45    6.85   538.3    5.1      51.353
2014    9       23     0  50    6.85   538.4    5.1      51.353
2014    9       23     0  55    6.84   538.4    5.1      51.352
2014    9       23     1   1    6.84   538.5    5.1      51.352
2014    9       23     1   6    6.84   538.6    5.1      51.353
2014    9       23     1  12    6.84   538.7    5.1      51.354
2014    9       23     1  17    6.84   538.7    5.1      51.355
2014    9       23     1  22    6.84   538.8    5.1      51.356
2014    9       23     1  28    6.84   538.9    5.1      51.358
2014    9       23     1  33    6.84   539.0    5.1      51.361
2014    9       23     1  38    6.84   539.0    5.1      51.363
2014    9       23     1  44    6.84   539.1    5.1      51.366
2014    9       23     1  49    6.84   539.2    5.1      51.369
2014    9       23     1  54    6.84   539.3    5.1      51.373
2014    9       23     2   0    6.84   539.3    5.1      51.377
2014    9       23     2   5    6.84   539.4    5.0      51.381
2014    9       23     2  10    6.84   539.5    5.0      51.385
2014    9       23     2  16    6.84   539.6    5.0      51.390
2014    9       23     2  21    6.84   539.6    5.0      51.395
2014    9       23     2  26    6.84   539.7    5.0      51.400
2014    9       23     2  32    6.84   539.8    5.0      51.405
2014    9       23     2  37    6.84   539.9    5.0      51.411
2014    9       23     2  42    6.83   539.9    5.0      51.417
2014    9       23     2  48    6.83   540.0    5.0      51.423
2014    9       23     2  53    6.83   540.1    5.0      51.429
2014    9       23     2  59    6.83   540.2    5.0      51.436
2014    9       23     3   4    6.83   540.2    5.0      51.443
2014    9       23     3   9    6.83   540.3    5.0      51.450
2014    9       23     3  15    6.83   540.4    5.0      51.457
2014    9       23     3  20    6.83   540.5    5.0      51.464
2014    9       23     3  25    6.83   540.5    5.0      51.472
2014    9       23     3  31    6.83   540.6    5.0      51.480
2014    9       23     3  36    6.83   540.7    5.0      51.488
2014    9       23     3  41    6.83   540.7    5.0      51.497
2014    9       23     3  47    6.83   540.8    5.0      51.505
2014    9       23     3  52    6.83   540.9    5.0      51.515
2014    9       23     3  57    6.83   541.0    5.0      51.524
2014    9       23     4   3    6.83   541.0    5.0      51.534
2014    9       23     4   8    6.83   541.1    5.0      51.545
2014    9       23     4  13    6.83   541.2    5.0      51.556
2014    9       23     4  19    6.83   541.3    5.0      51.567
2014    9       23     4  24    6.83   541.3    5.0      51.578
2014    9       23     4  29    6.83   541.4    5.0      51.590
2014    9       23     4  35    6.83   541.5    5.0      51.601
2014    9       23     4  40    6.83   541.5    5.0      51.613
2014    9       23     4  46    6.83   541.6    5.0      51.625
2014    9       23     4  51    6.83   541.7    5.0      51.637
2014    9       23     4  56    6.83   541.8    5.0      51.649
2014    9       23     5   2    6.83   541.8    5.0      51.662
2014    9       23     5   7    6.83   541.9    5.0      51.674
2014    9       23     5  12    6.82   542.0    5.0      51.687
2014    9       23     5  18    6.82   542.1    5.0      51.699
2014    9       23     5  23    6.82   542.1    5.0      51.710
2014    9       23     5  28    6.82   542.2    5.0      51.721
2014    9       23     5  34    6.82   542.3    5.0      51.732
2014    9       23     5  39    6.82   542.4    5.0      51.742
2014    9       23     5  44    6.82   542.4    5.0      51.752
2014    9       23     5  50    6.82   542.5    5.0      51.762
2014    9       23     5  55    6.82   542.6    5.0      51.771
2014    9       23     6   0    6.82   542.7    5.0      51.780
2014    9       23     6   6    6.82   542.8    5.0      51.788
2014    9       23     6  11    6.82   542.8    5.0      51.797
2014    9       23     6  16    6.82   542.9    5.0      51.805
2014    9       23     6  22    6.83   543.0    5.0      51.812
2014    9       23     6  27    6.83   543.1    5.0      51.819
2014    9       23     6  33    6.83   543.1    5.0      51.826
2014    9       23     6  38    6.83   543.2    5.0      51.833
2014    9       23     6  43    6.83   543.3    5.0      51.839
2014    9       23     6  49    6.83   543.4    5.0      51.846
2014    9       23     6  54    6.83   543.5    5.0      51.851
2014    9       23     6  59    6.83   543.5    5.0      51.857
2014    9       23     7   5    6.83   543.6    5.0      51.862
2014    9       23     7  10    6.83   543.7    5.0      51.868
2014    9       23     7  15    6.83   543.8    5.0      51.873
2014    9       23     7  21    6.83   543.9    5.0      51.878
2014    9       23     7  26    6.83   544.0    5.0      51.883
2014    9       23     7  31    6.83   544.0    5.0      51.887
2014    9       23     7  37    6.83   544.1    5.0      51.892
2014    9       23     7  42    6.83   544.2    5.0      51.897
2014    9       23     7  47    6.83   544.3    5.0      51.902
2014    9       23     7  53    6.83   544.4    5.0      51.906
2014    9       23     7  58    6.83   544.5    5.0      51.911
2014    9       23     8   3    6.83   544.5    5.0      51.916
2014    9       23     8   9    6.83   544.6    4.9      51.921
2014    9       23     8  14    6.83   544.7    4.9      51.927
2014    9       23     8  20    6.83   544.8    4.9      51.932
2014    9       23     8  25    6.83   544.9    4.9      51.938
2014    9       23     8  30    6.83   545.0    4.9      51.944
2014    9       23     8  36    6.83   545.1    4.9      51.950
2014    9       23     8  41    6.83   545.1    4.9      51.956
2014    9       23     8  46    6.83   545.2    4.9      51.962
2014    9       23     8  52    6.83   545.3    4.9      51.969
2014    9       23     8  57    6.83   545.4    4.9      51.976
2014    9       23     9   2    6.83   545.5    4.9      51.983
2014    9       23     9   8    6.83   545.6    4.9      51.991
2014    9       23     9  13    6.83   545.7    4.9      51.999
2014    9       23     9  18    6.83   545.7    4.9      52.007
2014    9       23     9  24    6.83   545.8    4.9      52.016
2014    9       23     9  29    6.83   545.9    4.9      52.025
2014    9       23     9  34    6.83   546.0    4.9      52.034
2014    9       23     9  40    6.83   546.1    4.9      52.044
2014    9       23     9  45    6.83   546.2    4.9      52.054
2014    9       23     9  51    6.83   546.2    4.9      52.064
2014    9       23     9  56    6.83   546.3    4.9      52.075
2014    9       23    10   1    6.83   546.4    4.9      52.087
2014    9       23    10   7    6.83   546.5    4.9      52.099
2014    9       23    10  12    6.83   546.6    4.9      52.111
2014    9       23    10  17    6.83   546.7    4.9      52.125
2014    9       23    10  23    6.83   546.7    4.9      52.138
2014    9       23    10  28    6.83   546.8    4.9      52.153
2014    9       23    10  33    6.83   546.9    4.9      52.168
2014    9       23    10  39    6.83   547.0    4.9      52.183
2014    9       23    10  44    6.83   547.1    4.9      52.200
2014    9       23    10  49    6.83   547.2    4.9      52.216
2014    9       23    10  55    6.83   547.3    4.9      52.234
2014    9       23    11   0    6.83   547.3    4.9      52.252
2014    9       23    11   5    6.83   547.4    4.9      52.272
2014    9       23    11  11    6.83   547.5    4.9      52.291
2014    9       23    11  16    6.83   547.6    4.9      52.312
2014    9       23    11  21    6.84   547.7    4.9      52.333
2014    9       23    11  27    6.84   547.8    4.9      52.355
2014    9       23    11  32    6.84   547.9    4.9      52.377
2014    9       23    11  37    6.84   547.9    4.9      52.400
2014    9       23    11  43    6.84   548.0    4.9      52.423
2014    9       23    11  48    6.84   548.1    4.9      52.446
2014    9       23    11  54    6.84   548.2    4.9      52.470
2014    9       23    11  59    6.84   548.3    4.9      52.495
2014    9       23    12   4    6.84   548.4    4.9      52.520
2014    9       23    12  10    6.84   548.5    4.9      52.546
2014    9       23    12  15    6.84   548.6    4.9      52.572
2014    9       23    12  20    6.84   548.7    4.9      52.598
2014    9       23    12  26    6.84   548.8    4.9      52.625
2014    9       23    12  31    6.84   548.9    4.9      52.652
2014    9       23    12  36    6.84   549.0    4.9      52.679
2014    9       23    12  42    6.84   549.1    4.9      52.705
2014    9       23    12  47    6.84   549.2    4.9      52.731
2014    9       23    12  52    6.84   549.3    4.9      52.757
2014    9       23    12  58    6.84   549.4    4.9      52.783
2014    9       23    13   3    6.85   549.5    4.9      52.808
2014    9       23    13   8    6.85   549.6    4.9      52.833
2014    9       23    13  14    6.85   549.7    4.9      52.857
2014    9       23    13  19    6.85   549.8    4.9      52.881
2014    9       23    13  24    6.85   549.9    4.9      52.905
2014    9       23    13  30    6.85   550.0    4.9      52.928
2014    9       23    13  35    6.85   550.1    4.9      52.952
2014    9       23    13  41    6.85   550.2    4.9      52.975
2014    9       23    13  46    6.85   550.3    4.9      52.998
2014    9       23    13  51    6.85   550.4    4.9      53.021
2014    9       23    13  57    6.85   550.5    4.9      53.043
2014    9       23    14   2    6.85   550.6    4.9      53.066
2014    9       23    14   7    6.85   550.7    4.9      53.089
2014    9       23    14  13    6.85   550.8    4.9      53.112
2014    9       23    14  18    6.85   550.9    4.9      53.136
2014    9       23    14  23    6.86   551.0    4.9      53.160
2014    9       23    14  29    6.86   551.1    4.9      53.184
2014    9       23    14  34    6.86   551.2    4.9      53.208
2014    9       23    14  39    6.86   551.3    4.9      53.233
2014    9       23    14  45    6.86   551.4    4.9      53.259
2014    9       23    14  50    6.86   551.6    4.9      53.286
2014    9       23    14  55    6.86   551.7    4.9      53.313
2014    9       23    15   1    6.86   551.8    4.9      53.341
2014    9       23    15   6    6.86   551.9    4.9      53.369
2014    9       23    15  11    6.86   552.1    4.9      53.398
2014    9       23    15  17    6.86   552.2    4.9      53.427
2014    9       23    15  22    6.86   552.3    4.9      53.455
2014    9       23    15  28    6.87   552.4    4.9      53.483
2014    9       23    15  33    6.87   552.6    4.9      53.510
2014    9       23    15  38    6.87   552.7    4.9      53.537
2014    9       23    15  44    6.87   552.8    4.9      53.564
2014    9       23    15  49    6.87   552.9    4.9      53.590
2014    9       23    15  54    6.87   553.1    4.9      53.616
2014    9       23    16   0    6.87   553.2    4.9      53.641
2014    9       23    16   5    6.87   553.3    4.9      53.665
2014    9       23    16  10    6.87   553.5    4.9      53.689
2014    9       23    16  16    6.87   553.6    4.9      53.713
2014    9       23    16  21    6.87   553.7    4.9      53.736
2014    9       23    16  26    6.87   553.9    4.9      53.759
2014    9       23    16  32    6.87   554.0    4.8      53.782
2014    9       23    16  37    6.88   554.1    4.8      53.805
2014    9       23    16  42    6.88   554.3    4.8      53.827
2014    9       23    16  48    6.88   554.4    4.8      53.850
2014    9       23    16  53    6.88   554.5    4.8      53.872
2014    9       23    16  59    6.88   554.6    4.8      53.894
2014    9       23    17   4    6.88   554.8    4.8      53.917
2014    9       23    17   9    6.88   554.9    4.8      53.939
2014    9       23    17  15    6.88   555.0    4.8      53.962
2014    9       23    17  20    6.88   555.2    4.8      53.984
2014    9       23    17  25    6.88   555.3    4.8      54.007
2014    9       23    17  31    6.88   555.4    4.8      54.030
2014    9       23    17  36    6.88   555.6    4.8      54.053
2014    9       23    17  41    6.88   555.7    4.8      54.076
2014    9       23    17  47    6.89   555.8    4.8      54.100
2014    9       23    17  52    6.89   556.0    4.8      54.124
2014    9       23    17  57    6.89   556.1    4.8      54.148
2014    9       23    18   3    6.89   556.2    4.8      54.173
2014    9       23    18   8    6.89   556.4    4.8      54.198
2014    9       23    18  13    6.89   556.5    4.8      54.224
2014    9       23    18  19    6.89   556.6    4.8      54.250
2014    9       23    18  24    6.89   556.8    4.8      54.277
2014    9       23    18  29    6.89   556.9    4.8      54.304
2014    9       23    18  35    6.89   557.0    4.8      54.332
2014    9       23    18  40    6.89   557.2    4.8      54.361
2014    9       23    18  46    6.89   557.3    4.8      54.390
2014    9       23    18  51    6.89   557.4    4.8      54.420
2014    9       23    18  56    6.90   557.6    4.8      54.451
2014    9       23    19   2    6.90   557.7    4.8      54.482
2014    9       23    19   7    6.90   557.9    4.8      54.513
2014    9       23    19  12    6.90   558.0    4.8      54.545
2014    9       23    19  18    6.90   558.2    4.8      54.577
2014    9       23    19  23    6.90   558.3    4.8      54.610
2014    9       23    19  28    6.90   558.5    4.8      54.643
2014    9       23    19  34    6.90   558.6    4.8      54.676
2014    9       23    19  39    6.90   558.8    4.8      54.710
2014    9       23    19  44    6.90   558.9    4.8      54.744
2014    9       23    19  50    6.90   559.1    4.8      54.778
2014    9       23    19  55    6.90   559.2    4.8      54.811
2014    9       23    20   0    6.90   559.3    4.8      54.845
2014    9       23    20   6    6.90   559.5    4.8      54.879
2014    9       23    20  11    6.91   559.6    4.8      54.912
2014    9       23    20  16    6.91   559.8    4.8      54.946
2014    9       23    20  22    6.91   559.9    4.8      54.980
2014    9       23    20  27    6.91   560.1    4.8      55.014
2014    9       23    20  33    6.91   560.2    4.8      55.048
2014    9       23    20  38    6.91   560.4    4.8      55.084
2014    9       23    20  43    6.91   560.6    4.8      55.119
2014    9       23    20  49    6.91   560.7    4.8      55.155
2014    9       23    20  54    6.91   560.9    4.8      55.192
2014    9       23    20  59    6.91   561.0    4.8      55.229
2014    9       23    21   5    6.91   561.2    4.8      55.267
2014    9       23    21  10    6.91   561.3    4.8      55.305
2014    9       23    21  15    6.91   561.5    4.8      55.345
2014    9       23    21  21    6.91   561.6    4.8      55.385
2014    9       23    21  26    6.92   561.8    4.8      55.426
2014    9       23    21  31    6.92   561.9    4.8      55.468
2014    9       23    21  37    6.92   562.1    4.8      55.511
2014    9       23    21  42    6.92   562.3    4.8      55.557
2014    9       23    21  47    6.92   562.4    4.8      55.604
2014    9       23    21  53    6.92   562.6    4.8      55.653
2014    9       23    21  58    6.92   562.8    4.8      55.704
2014    9       23    22   3    6.92   563.0    4.8      55.757
2014    9       23    22   9    6.92   563.2    4.8      55.810
2014    9       23    22  14    6.93   563.3    4.8      55.864
2014    9       23    22  20    6.93   563.5    4.8      55.918
2014    9       23    22  25    6.93   563.7    4.8      55.971
2014    9       23    22  30    6.93   563.9    4.8      56.025
2014    9       23    22  36    6.93   564.1    4.8      56.078
2014    9       23    22  41    6.93   564.3    4.8      56.130
2014    9       23    22  46    6.93   564.5    4.8      56.181
2014    9       23    22  52    6.93   564.7    4.8      56.230
2014    9       23    22  57    6.94   564.9    4.8      56.279
2014    9       23    23   2    6.94   565.1    4.8      56.326
2014    9       23    23   8    6.94   565.3    4.8      56.372
2014    9       23    23  13    6.94   565.5    4.8      56.417
2014    9       23    23  18    6.94   565.7    4.8      56.461
2014    9       23    23  24    6.94   565.9    4.8      56.504
2014    9       23    23  29    6.94   566.1    4.8      56.546
2014    9       23    23  34    6.94   566.4    4.8      56.587
2014    9       23    23  40    6.94   566.6    4.7      56.627
2014    9       23    23  45    6.94   566.8    4.7      56.667
2014    9       23    23  50    6.94   567.0    4.7      56.706
2014    9       23    23  56    6.95   567.2    4.7      56.744
2014    9       24     0   1    6.95   567.4    4.7      56.782
2014    9       24     0   7    6.95   567.6    4.7      56.819
2014    9       24     0  12    6.95   567.8    4.7      56.856
2014    9       24     0  17    6.95   568.0    4.7      56.892
2014    9       24     0  23    6.95   568.2    4.7      56.928
2014    9       24     0  28    6.95   568.4    4.7      56.964
2014    9       24     0  33    6.95   568.6    4.7      57.000
2014    9       24     0  39    6.95   568.8    4.7      57.036
2014    9       24     0  44    6.95   569.1    4.7      57.073
2014    9       24     0  49    6.95   569.3    4.7      57.111
2014    9       24     0  55    6.95   569.5    4.7      57.149
2014    9       24     1   0    6.96   569.7    4.7      57.188
2014    9       24     1   5    6.96   569.9    4.7      57.227
2014    9       24     1  11    6.96   570.1    4.7      57.268
2014    9       24     1  16    6.96   570.4    4.7      57.310
2014    9       24     1  21    6.96   570.6    4.7      57.354
2014    9       24     1  27    6.96   570.8    4.7      57.398
2014    9       24     1  32    6.96   571.1    4.7      57.444
2014    9       24     1  37    6.96   571.3    4.7      57.490
2014    9       24     1  43    6.96   571.6    4.7      57.536
2014    9       24     1  48    6.96   571.8    4.7      57.581
2014    9       24     1  54    6.96   572.1    4.7      57.625
2014    9       24     1  59    6.96   572.3    4.7      57.668
2014    9       24     2   4    6.96   572.5    4.7      57.710
2014    9       24     2  10    6.96   572.8    4.7      57.751
2014    9       24     2  15    6.96   573.0    4.7      57.791
2014    9       24     2  20    6.96   573.3    4.7      57.831
2014    9       24     2  26    6.96   573.5    4.7      57.870
2014    9       24     2  31    6.96   573.8    4.7      57.908
2014    9       24     2  36    6.96   574.0    4.7      57.945
2014    9       24     2  42    6.96   574.3    4.7      57.981
2014    9       24     2  47    6.96   574.5    4.6      58.017
2014    9       24     2  52    6.96   574.8    4.6      58.053
2014    9       24     2  58    6.96   575.0    4.6      58.087
2014    9       24     3   3    6.96   575.2    4.6      58.121
2014    9       24     3   8    6.96   575.5    4.6      58.155
2014    9       24     3  14    6.96   575.7    4.6      58.188
2014    9       24     3  19    6.96   576.0    4.6      58.221
2014    9       24     3  24    6.96   576.2    4.6      58.253
2014    9       24     3  30    6.96   576.4    4.6      58.285
2014    9       24     3  35    6.96   576.7    4.6      58.317
2014    9       24     3  41    6.96   576.9    4.6      58.349
2014    9       24     3  46    6.96   577.2    4.6      58.381
2014    9       24     3  51    6.96   577.4    4.6      58.413
2014    9       24     3  57    6.96   577.6    4.6      58.445
2014    9       24     4   2    6.96   577.9    4.6      58.477
2014    9       24     4   7    6.96   578.1    4.6      58.510
2014    9       24     4  13    6.96   578.4    4.6      58.544
2014    9       24     4  18    6.96   578.6    4.6      58.577
2014    9       24     4  23    6.96   578.9    4.6      58.612
2014    9       24     4  29    6.96   579.1    4.6      58.647
2014    9       24     4  34    6.96   579.3    4.6      58.683
2014    9       24     4  39    6.96   579.6    4.6      58.721
2014    9       24     4  45    6.96   579.8    4.6      58.758
2014    9       24     4  50    6.96   580.1    4.6      58.797
2014    9       24     4  55    6.96   580.3    4.6      58.836
2014    9       24     5   1    6.96   580.6    4.6      58.876
2014    9       24     5   6    6.96   580.8    4.5      58.918
2014    9       24     5  11    6.96   581.1    4.5      58.962
2014    9       24     5  17    6.96   581.4    4.5      59.007
2014    9       24     5  22    6.96   581.6    4.5      59.054
2014    9       24     5  28    6.96   581.9    4.5      59.101
2014    9       24     5  33    6.96   582.2    4.5      59.150
2014    9       24     5  38    6.96   582.4    4.5      59.197
2014    9       24     5  44    6.96   582.7    4.5      59.244
2014    9       24     5  49    6.96   583.0    4.5      59.290
2014    9       24     5  54    6.96   583.2    4.5      59.336
2014    9       24     6   0    6.96   583.5    4.5      59.381
2014    9       24     6   5    6.96   583.8    4.5      59.426
2014    9       24     6  10    6.96   584.1    4.5      59.471
2014    9       24     6  16    6.96   584.3    4.5      59.514
2014    9       24     6  21    6.96   584.6    4.5      59.558
2014    9       24     6  26    6.96   584.9    4.5      59.600
2014    9       24     6  32    6.96   585.2    4.5      59.643
2014    9       24     6  37    6.96   585.4    4.5      59.685
2014    9       24     6  42    6.96   585.7    4.5      59.727
2014    9       24     6  48    6.96   586.0    4.5      59.768
2014    9       24     6  53    6.96   586.3    4.5      59.810
2014    9       24     6  58    6.96   586.6    4.5      59.851
2014    9       24     7   4    6.96   586.8    4.5      59.892
2014    9       24     7   9    6.96   587.1    4.5      59.932
2014    9       24     7  15    6.96   587.4    4.4      59.973
2014    9       24     7  20    6.96   587.7    4.4      60.014
2014    9       24     7  25    6.96   587.9    4.4      60.055
2014    9       24     7  31    6.96   588.2    4.4      60.096
2014    9       24     7  36    6.96   588.5    4.4      60.137
2014    9       24     7  41    6.96   588.7    4.4      60.179
2014    9       24     7  47    6.95   589.0    4.4      60.222
2014    9       24     7  52    6.95   589.3    4.4      60.265
2014    9       24     7  57    6.95   589.6    4.4      60.310
2014    9       24     8   3    6.95   589.8    4.4      60.356
2014    9       24     8   8    6.95   590.1    4.4      60.404
2014    9       24     8  13    6.95   590.4    4.4      60.453
2014    9       24     8  19    6.95   590.7    4.4      60.504
2014    9       24     8  24    6.95   590.9    4.4      60.556
2014    9       24     8  29    6.95   591.2    4.4      60.611
2014    9       24     8  35    6.95   591.5    4.4      60.667
2014    9       24     8  40    6.94   591.8    4.4      60.726
2014    9       24     8  45    6.94   592.1    4.4      60.785
2014    9       24     8  51    6.94   592.4    4.4      60.845
2014    9       24     8  56    6.94   592.7    4.4      60.904
2014    9       24     9   2    6.94   593.0    4.4      60.960
2014    9       24     9   7    6.94   593.3    4.4      61.015
2014    9       24     9  12    6.93   593.6    4.4      61.068
2014    9       24     9  18    6.93   593.9    4.4      61.118
2014    9       24     9  23    6.93   594.3    4.4      61.166
2014    9       24     9  28    6.93   594.6    4.4      61.212
2014    9       24     9  34    6.93   594.9    4.3      61.256
2014    9       24     9  39    6.92   595.2    4.3      61.298
2014    9       24     9  44    6.92   595.5    4.3      61.339
2014    9       24     9  50    6.92   595.8    4.3      61.377
2014    9       24     9  55    6.92   596.1    4.3      61.414
2014    9       24    10   0    6.92   596.4    4.3      61.450
2014    9       24    10   6    6.91   596.7    4.3      61.484
2014    9       24    10  11    6.91   597.0    4.3      61.517
2014    9       24    10  16    6.91   597.3    4.3      61.548
2014    9       24    10  22    6.91   597.5    4.3      61.579
2014    9       24    10  27    6.91   597.8    4.3      61.608
2014    9       24    10  32    6.90   598.1    4.3      61.636
2014    9       24    10  38    6.90   598.4    4.3      61.663
2014    9       24    10  43    6.90   598.7    4.3      61.689
2014    9       24    10  49    6.90   599.0    4.3      61.714
2014    9       24    10  54    6.90   599.3    4.3      61.739
2014    9       24    10  59    6.89   599.6    4.2      61.762
2014    9       24    11   5    6.89   599.9    4.2      61.785
2014    9       24    11  10    6.89   600.2    4.2      61.806
2014    9       24    11  15    6.89   600.5    4.2      61.828
2014    9       24    11  21    6.88   600.8    4.2      61.848
2014    9       24    11  26    6.88   601.1    4.2      61.868
2014    9       24    11  31    6.88   601.4    4.2      61.887
2014    9       24    11  37    6.88   601.6    4.2      61.905
2014    9       24    11  42    6.88   601.9    4.2      61.923
2014    9       24    11  47    6.87   602.2    4.2      61.941
2014    9       24    11  53    6.87   602.5    4.2      61.958
2014    9       24    11  58    6.87   602.8    4.2      61.975
2014    9       24    12   3    6.87   603.1    4.2      61.992
2014    9       24    12   9    6.87   603.4    4.2      62.008
2014    9       24    12  14    6.86   603.7    4.2      62.024
2014    9       24    12  19    6.86   604.0    4.1      62.040
2014    9       24    12  25    6.86   604.3    4.1      62.056
2014    9       24    12  30    6.86   604.5    4.1      62.072
2014    9       24    12  36    6.85   604.8    4.1      62.088
2014    9       24    12  41    6.85   605.1    4.1      62.104
2014    9       24    12  46    6.85   605.4    4.1      62.120
2014    9       24    12  52    6.85   605.7    4.1      62.136
2014    9       24    12  57    6.85   606.0    4.1      62.153
2014    9       24    13   2    6.84   606.3    4.1      62.169
2014    9       24    13   8    6.84   606.6    4.1      62.185
2014    9       24    13  13    6.84   606.9    4.1      62.202
2014    9       24    13  18    6.83   607.2    4.1      62.219
2014    9       24    13  24    6.83   607.4    4.1      62.236
2014    9       24    13  29    6.83   607.7    4.1      62.253
2014    9       24    13  34    6.83   608.0    4.1      62.270
2014    9       24    13  40    6.82   608.3    4.0      62.288
2014    9       24    13  45    6.82   608.6    4.0      62.306
2014    9       24    13  50    6.82   608.9    4.0      62.324
2014    9       24    13  56    6.82   609.1    4.0      62.343
2014    9       24    14   1    6.81   609.4    4.0      62.361
2014    9       24    14   6    6.81   609.7    4.0      62.380
2014    9       24    14  12    6.81   610.0    4.0      62.400
2014    9       24    14  17    6.80   610.3    4.0      62.420
2014    9       24    14  23    6.80   610.5    4.0      62.441
2014    9       24    14  28    6.80   610.8    4.0      62.462
2014    9       24    14  33    6.79   611.1    4.0      62.484
2014    9       24    14  39    6.79   611.3    4.0      62.507
2014    9       24    14  44    6.79   611.6    4.0      62.530
2014    9       24    14  49    6.78   611.9    4.0      62.554
2014    9       24    14  55    6.78   612.1    4.0      62.580
2014    9       24    15   0    6.78   612.4    4.0      62.606
2014    9       24    15   5    6.77   612.6    4.0      62.633
2014    9       24    15  11    6.77   612.9    3.9      62.663
2014    9       24    15  16    6.77   613.1    3.9      62.693
2014    9       24    15  21    6.76   613.4    3.9      62.725
2014    9       24    15  27    6.76   613.7    3.9      62.758
2014    9       24    15  32    6.76   613.9    3.9      62.792
2014    9       24    15  37    6.75   614.2    3.9      62.828
2014    9       24    15  43    6.75   614.4    3.9      62.865
2014    9       24    15  48    6.75   614.7    3.9      62.903
2014    9       24    15  53    6.74   614.9    3.9      62.941
2014    9       24    15  59    6.74   615.1    3.9      62.979
2014    9       24    16   4    6.73   615.4    3.9      63.018
2014    9       24    16  10    6.73   615.6    3.9      63.055
2014    9       24    16  15    6.73   615.9    3.9      63.091
2014    9       24    16  20    6.72   616.1    3.9      63.126
2014    9       24    16  26    6.72   616.4    3.9      63.158
2014    9       24    16  31    6.72   616.6    3.9      63.188
2014    9       24    16  36    6.71   616.9    3.9      63.216
2014    9       24    16  42    6.71   617.1    3.9      63.241
2014    9       24    16  47    6.70   617.3    3.9      63.264
2014    9       24    16  52    6.70   617.6    3.9      63.285
2014    9       24    16  58    6.70   617.8    3.9      63.304
2014    9       24    17   3    6.69   618.0    3.9      63.322
2014    9       24    17   8    6.69   618.3    3.8      63.337
2014    9       24    17  14    6.68   618.5    3.8      63.350
2014    9       24    17  19    6.68   618.7    3.8      63.363
2014    9       24    17  24    6.68   618.9    3.8      63.373
2014    9       24    17  30    6.67   619.2    3.8      63.382
2014    9       24    17  35    6.67   619.4    3.8      63.389
2014    9       24    17  40    6.66   619.6    3.8      63.395
2014    9       24    17  46    6.66   619.8    3.8      63.400
2014    9       24    17  51    6.66   620.0    3.8      63.403
2014    9       24    17  57    6.65   620.3    3.8      63.405
2014    9       24    18   2    6.65   620.5    3.8      63.405
2014    9       24    18   7    6.65   620.7    3.8      63.405
2014    9       24    18  13    6.64   620.9    3.8      63.403
2014    9       24    18  18    6.64   621.1    3.8      63.400
2014    9       24    18  23    6.63   621.4    3.8      63.396
2014    9       24    18  29    6.63   621.6    3.8      63.391
2014    9       24    18  34    6.63   621.8    3.8      63.385
2014    9       24    18  39    6.62   622.0    3.7      63.378
2014    9       24    18  45    6.62   622.2    3.7      63.370
2014    9       24    18  50    6.61   622.4    3.7      63.362
2014    9       24    18  55    6.61   622.6    3.7      63.352
2014    9       24    19   1    6.61   622.8    3.7      63.342
2014    9       24    19   6    6.60   623.1    3.7      63.330
2014    9       24    19  11    6.60   623.3    3.7      63.318
2014    9       24    19  17    6.59   623.5    3.7      63.305
2014    9       24    19  22    6.59   623.7    3.7      63.292
2014    9       24    19  27    6.59   623.9    3.7      63.278
2014    9       24    19  33    6.58   624.1    3.7      63.264
2014    9       24    19  38    6.58   624.3    3.7      63.249
2014    9       24    19  44    6.57   624.5    3.7      63.233
2014    9       24    19  49    6.57   624.7    3.7      63.217
2014    9       24    19  54    6.57   624.9    3.7      63.201
2014    9       24    20   0    6.56   625.1    3.7      63.185
2014    9       24    20   5    6.56   625.3    3.7      63.168
2014    9       24    20  10    6.55   625.5    3.6      63.151
2014    9       24    20  16    6.55   625.6    3.6      63.134
2014    9       24    20  21    6.55   625.8    3.6      63.117
2014    9       24    20  26    6.54   626.0    3.6      63.101
2014    9       24    20  32    6.54   626.2    3.6      63.085
2014    9       24    20  37    6.53   626.4    3.6      63.070
2014    9       24    20  42    6.53   626.6    3.6      63.055
2014    9       24    20  48    6.52   626.7    3.6      63.041
2014    9       24    20  53    6.52   626.9    3.6      63.028
2014    9       24    20  58    6.52   627.1    3.6      63.016
2014    9       24    21   4    6.51   627.3    3.6      63.005
2014    9       24    21   9    6.51   627.4    3.6      62.996
2014    9       24    21  14    6.50   627.6    3.6      62.988
2014    9       24    21  20    6.50   627.8    3.6      62.980
2014    9       24    21  25    6.49   628.0    3.6      62.974
2014    9       24    21  31    6.49   628.1    3.6      62.970
2014    9       24    21  36    6.49   628.3    3.6      62.967
2014    9       24    21  41    6.48   628.5    3.6      62.965
2014    9       24    21  47    6.48   628.6    3.6      62.964
2014    9       24    21  52    6.47   628.8    3.5      62.965
2014    9       24    21  57    6.47   629.0    3.5      62.966
2014    9       24    22   3    6.47   629.2    3.5      62.967
2014    9       24    22   8    6.46   629.3    3.5      62.968
2014    9       24    22  13    6.46   629.5    3.5      62.969
2014    9       24    22  19    6.45   629.7    3.5      62.970
2014    9       24    22  24    6.45   629.8    3.5      62.972
2014    9       24    22  29    6.44   630.0    3.5      62.974
2014    9       24    22  35    6.44   630.2    3.5      62.977
2014    9       24    22  40    6.44   630.3    3.5      62.980
2014    9       24    22  45    6.43   630.5    3.5      62.984
2014    9       24    22  51    6.43   630.6    3.5      62.989
2014    9       24    22  56    6.42   630.8    3.5      62.994
2014    9       24    23   1    6.42   630.9    3.5      62.999
2014    9       24    23   7    6.41   631.1    3.5      63.004
2014    9       24    23  12    6.41   631.2    3.5      63.009
2014    9       24    23  18    6.41   631.4    3.5      63.013
2014    9       24    23  23    6.40   631.5    3.5      63.017
2014    9       24    23  28    6.40   631.7    3.5      63.021
2014    9       24    23  34    6.39   631.8    3.5      63.024
2014    9       24    23  39    6.39   632.0    3.5      63.026
2014    9       24    23  44    6.38   632.1    3.5      63.027
2014    9       24    23  50    6.38   632.2    3.5      63.026
2014    9       24    23  55    6.38   632.4    3.5      63.024
2014    9       25     0   0    6.37   632.5    3.5      63.020
2014    9       25     0   6    6.37   632.6    3.5      63.014
2014    9       25     0  11    6.36   632.8    3.4      63.007
2014    9       25     0  16    6.36   632.9    3.4      62.999
2014    9       25     0  22    6.36   633.0    3.4      62.990
2014    9       25     0  27    6.35   633.1    3.4      62.979
2014    9       25     0  32    6.35   633.3    3.4      62.967
2014    9       25     0  38    6.34   633.4    3.4      62.954
2014    9       25     0  43    6.34   633.5    3.4      62.940
2014    9       25     0  48    6.34   633.6    3.4      62.925
2014    9       25     0  54    6.33   633.7    3.4      62.908
2014    9       25     0  59    6.33   633.8    3.4      62.891
2014    9       25     1   5    6.32   634.0    3.4      62.871
2014    9       25     1  10    6.32   634.1    3.4      62.851
2014    9       25     1  15    6.32   634.2    3.4      62.830
2014    9       25     1  21    6.31   634.3    3.4      62.807
2014    9       25     1  26    6.31   634.4    3.4      62.784
2014    9       25     1  31    6.30   634.5    3.4      62.759
2014    9       25     1  37    6.30   634.6    3.4      62.733
2014    9       25     1  42    6.29   634.7    3.4      62.707
2014    9       25     1  47    6.29   634.8    3.4      62.680
2014    9       25     1  53    6.29   634.9    3.4      62.652
2014    9       25     1  58    6.28   635.0    3.4      62.624
2014    9       25     2   3    6.28   635.1    3.4      62.595
2014    9       25     2   9    6.27   635.2    3.4      62.565
2014    9       25     2  14    6.27   635.3    3.4      62.535
2014    9       25     2  19    6.27   635.4    3.4      62.504
2014    9       25     2  25    6.26   635.5    3.4      62.473
2014    9       25     2  30    6.26   635.5    3.4      62.441
2014    9       25     2  35    6.25   635.6    3.3      62.409
2014    9       25     2  41    6.25   635.7    3.3      62.377
2014    9       25     2  46    6.25   635.8    3.3      62.344
2014    9       25     2  52    6.24   635.9    3.3      62.311
2014    9       25     2  57    6.24   636.0    3.3      62.278
2014    9       25     3   2    6.23   636.0    3.3      62.245
2014    9       25     3   8    6.23   636.1    3.3      62.212
2014    9       25     3  13    6.22   636.2    3.3      62.179
2014    9       25     3  18    6.22   636.2    3.3      62.146
2014    9       25     3  24    6.22   636.3    3.3      62.114
2014    9       25     3  29    6.21   636.4    3.3      62.082
2014    9       25     3  34    6.21   636.4    3.3      62.051
2014    9       25     3  40    6.20   636.5    3.3      62.021
2014    9       25     3  45    6.20   636.6    3.3      61.991
2014    9       25     3  50    6.19   636.6    3.3      61.963
2014    9       25     3  56    6.19   636.7    3.3      61.936
2014    9       25     4   1    6.19   636.7    3.3      61.911
2014    9       25     4   6    6.18   636.8    3.3      61.887
2014    9       25     4  12    6.18   636.8    3.3      61.864
2014    9       25     4  17    6.18   636.9    3.3      61.844
2014    9       25     4  22    6.17   636.9    3.3      61.826
2014    9       25     4  28    6.17   637.0    3.3      61.809
2014    9       25     4  33    6.16   637.0    3.3      61.794
2014    9       25     4  39    6.16   637.1    3.3      61.780
2014    9       25     4  44    6.16   637.1    3.3      61.768
2014    9       25     4  49    6.15   637.2    3.3      61.758
2014    9       25     4  55    6.15   637.2    3.3      61.750
2014    9       25     5   0    6.15   637.3    3.3      61.742
2014    9       25     5   5    6.14   637.4    3.3      61.736
2014    9       25     5  11    6.14   637.4    3.3      61.731
2014    9       25     5  16    6.13   637.5    3.2      61.725
2014    9       25     5  21    6.13   637.6    3.2      61.719
2014    9       25     5  27    6.13   637.6    3.2      61.713
2014    9       25     5  32    6.12   637.7    3.2      61.706
2014    9       25     5  37    6.12   637.8    3.2      61.699
2014    9       25     5  43    6.12   637.8    3.2      61.691
2014    9       25     5  48    6.11   637.9    3.2      61.683
2014    9       25     5  53    6.11   637.9    3.2      61.675
2014    9       25     5  59    6.10   638.0    3.2      61.667
2014    9       25     6   4    6.10   638.1    3.2      61.659
2014    9       25     6   9    6.10   638.1    3.2      61.650
2014    9       25     6  15    6.09   638.2    3.2      61.642
2014    9       25     6  20    6.09   638.3    3.2      61.633
2014    9       25     6  26    6.09   638.3    3.2      61.623
2014    9       25     6  31    6.08   638.4    3.2      61.614
2014    9       25     6  36    6.08   638.4    3.2      61.604
2014    9       25     6  42    6.08   638.5    3.2      61.594
2014    9       25     6  47    6.07   638.6    3.2      61.583
2014    9       25     6  52    6.07   638.6    3.2      61.572
2014    9       25     6  58    6.07   638.7    3.2      61.561
2014    9       25     7   3    6.06   638.7    3.2      61.549
2014    9       25     7   8    6.06   638.8    3.2      61.537
2014    9       25     7  14    6.05   638.9    3.2      61.525
2014    9       25     7  19    6.05   638.9    3.2      61.511
2014    9       25     7  24    6.05   639.0    3.2      61.498
2014    9       25     7  30    6.04   639.0    3.2      61.484
2014    9       25     7  35    6.04   639.1    3.2      61.469
2014    9       25     7  40    6.04   639.1    3.2      61.454
2014    9       25     7  46    6.03   639.2    3.2      61.438
2014    9       25     7  51    6.03   639.2    3.2      61.422
2014    9       25     7  56    6.03   639.3    3.2      61.406
2014    9       25     8   2    6.02   639.3    3.2      61.388
2014    9       25     8   7    6.02   639.4    3.2      61.371
2014    9       25     8  13    6.02   639.4    3.2      61.352
2014    9       25     8  18    6.01   639.5    3.2      61.333
2014    9       25     8  23    6.01   639.5    3.2      61.313
2014    9       25     8  29    6.01   639.6    3.2      61.293
2014    9       25     8  34    6.00   639.6    3.2      61.272
2014    9       25     8  39    6.00   639.7    3.2      61.250
2014    9       25     8  45    6.00   639.7    3.2      61.228
2014    9       25     8  50    5.99   639.8    3.2      61.205
2014    9       25     8  55    5.99   639.8    3.2      61.181
2014    9       25     9   1    5.99   639.8    3.2      61.157
2014    9       25     9   6    5.98   639.9    3.2      61.132
2014    9       25     9  11    5.98   639.9    3.1      61.107
2014    9       25     9  17    5.98   639.9    3.1      61.081
2014    9       25     9  22    5.97   640.0    3.1      61.055
2014    9       25     9  27    5.97   640.0    3.1      61.028
2014    9       25     9  33    5.96   640.0    3.1      61.001
2014    9       25     9  38    5.96   640.0    3.1      60.973
2014    9       25     9  43    5.96   640.1    3.1      60.945
2014    9       25     9  49    5.95   640.1    3.1      60.917
2014    9       25     9  54    5.95   640.1    3.1      60.888
2014    9       25    10   0    5.95   640.1    3.1      60.859
2014    9       25    10   5    5.94   640.1    3.1      60.830
2014    9       25    10  10    5.94   640.1    3.1      60.801
2014    9       25    10  16    5.94   640.1    3.1      60.772
2014    9       25    10  21    5.93   640.2    3.1      60.743
2014    9       25    10  26    5.93   640.2    3.1      60.714
2014    9       25    10  32    5.92   640.2    3.1      60.685
2014    9       25    10  37    5.92   640.2    3.1      60.657
2014    9       25    10  42    5.92   640.2    3.1      60.629
2014    9       25    10  48    5.91   640.2    3.1      60.601
2014    9       25    10  53    5.91   640.2    3.1      60.574
2014    9       25    10  58    5.91   640.2    3.1      60.547
2014    9       25    11   4    5.90   640.2    3.1      60.520
2014    9       25    11   9    5.90   640.2    3.1      60.493
2014    9       25    11  14    5.90   640.2    3.1      60.467
2014    9       25    11  20    5.89   640.2    3.1      60.441
2014    9       25    11  25    5.89   640.1    3.1      60.415
2014    9       25    11  30    5.89   640.1    3.1      60.389
2014    9       25    11  36    5.88   640.1    3.1      60.363
2014    9       25    11  41    5.88   640.1    3.1      60.338
2014    9       25    11  47    5.88   640.1    3.1      60.313
2014    9       25    11  52    5.87   640.1    3.1      60.288
2014    9       25    11  57    5.87   640.1    3.1      60.263
2014    9       25    12   3    5.87   640.1    3.1      60.238
2014    9       25    12   8    5.86   640.1    3.1      60.214
2014    9       25    12  13    5.86   640.1    3.1      60.190
2014    9       25    12  19    5.86   640.1    3.1      60.166
2014    9       25    12  24    5.86   640.1    3.1      60.142
2014    9       25    12  29    5.85   640.0    3.1      60.119
2014    9       25    12  35    5.85   640.0    3.1      60.095
2014    9       25    12  40    5.85   640.0    3.1      60.072
2014    9       25    12  45    5.84   640.0    3.1      60.049
2014    9       25    12  51    5.84   640.0    3.1      60.026
2014    9       25    12  56    5.84   640.0    3.1      60.002
2014    9       25    13   1    5.83   640.0    3.0      59.979
2014    9       25    13   7    5.83   640.0    3.0      59.956
2014    9       25    13  12    5.83   639.9    3.0      59.933
2014    9       25    13  17    5.83   639.9    3.0      59.910
2014    9       25    13  23    5.82   639.9    3.0      59.887
2014    9       25    13  28    5.82   639.9    3.0      59.864
2014    9       25    13  34    5.82   639.9    3.0      59.841
2014    9       25    13  39    5.81   639.9    3.0      59.818
2014    9       25    13  44    5.81   639.8    3.0      59.796
2014    9       25    13  50    5.81   639.8    3.0      59.774
2014    9       25    13  55    5.81   639.8    3.0      59.752
2014    9       25    14   0    5.80   639.8    3.0      59.731
2014    9       25    14   6    5.80   639.8    3.0      59.710
2014    9       25    14  11    5.80   639.8    3.0      59.690
2014    9       25    14  16    5.79   639.7    3.0      59.671
2014    9       25    14  22    5.79   639.7    3.0      59.652
2014    9       25    14  27    5.79   639.7    3.0      59.635
2014    9       25    14  32    5.79   639.7    3.0      59.617
2014    9       25    14  38    5.78   639.7    3.0      59.601
2014    9       25    14  43    5.78   639.7    3.0      59.586
2014    9       25    14  48    5.78   639.6    3.0      59.572
2014    9       25    14  54    5.78   639.6    3.0      59.559
2014    9       25    14  59    5.77   639.6    3.0      59.546
2014    9       25    15   4    5.77   639.6    3.0      59.535
2014    9       25    15  10    5.77   639.6    3.0      59.524
2014    9       25    15  15    5.77   639.6    3.0      59.515
2014    9       25    15  21    5.76   639.6    3.0      59.507
2014    9       25    15  26    5.76   639.6    3.0      59.499
2014    9       25    15  31    5.76   639.6    3.0      59.492
2014    9       25    15  37    5.75   639.6    3.0      59.486
2014    9       25    15  42    5.75   639.6    3.0      59.480
2014    9       25    15  47    5.75   639.6    3.0      59.474
2014    9       25    15  53    5.75   639.5    3.0      59.469
2014    9       25    15  58    5.74   639.5    3.0      59.463
2014    9       25    16   3    5.74   639.5    3.0      59.458
2014    9       25    16   9    5.74   639.5    3.0      59.452
2014    9       25    16  14    5.74   639.5    3.0      59.444
2014    9       25    16  19    5.73   639.5    3.0      59.436
2014    9       25    16  25    5.73   639.5    3.0      59.426
2014    9       25    16  30    5.73   639.5    3.0      59.415
2014    9       25    16  35    5.72   639.5    3.0      59.403
2014    9       25    16  41    5.72   639.5    3.0      59.390
2014    9       25    16  46    5.72   639.5    3.0      59.376
2014    9       25    16  51    5.72   639.5    3.0      59.361
2014    9       25    16  57    5.71   639.4    3.0      59.345
2014    9       25    17   2    5.71   639.4    3.0      59.328
2014    9       25    17   8    5.71   639.4    3.0      59.310
2014    9       25    17  13    5.70   639.4    3.0      59.292
2014    9       25    17  18    5.70   639.3    3.0      59.273
2014    9       25    17  24    5.70   639.3    3.0      59.253
2014    9       25    17  29    5.70   639.3    3.0      59.233
2014    9       25    17  34    5.69   639.3    3.0      59.212
2014    9       25    17  40    5.69   639.2    3.0      59.191
2014    9       25    17  45    5.69   639.2    3.0      59.169
2014    9       25    17  50    5.68   639.2    3.0      59.147
2014    9       25    17  56    5.68   639.1    3.0      59.124
2014    9       25    18   1    5.68   639.1    3.0      59.101
2014    9       25    18   6    5.68   639.0    3.0      59.078
2014    9       25    18  12    5.67   639.0    3.0      59.055
2014    9       25    18  17    5.67   639.0    3.0      59.032
2014    9       25    18  22    5.67   638.9    3.0      59.008
2014    9       25    18  28    5.67   638.9    3.0      58.984
2014    9       25    18  33    5.66   638.8    3.0      58.960
2014    9       25    18  38    5.66   638.8    3.0      58.936
2014    9       25    18  44    5.66   638.8    3.0      58.911
2014    9       25    18  49    5.66   638.7    3.0      58.887
2014    9       25    18  55    5.65   638.7    3.0      58.861
2014    9       25    19   0    5.65   638.6    3.0      58.836
2014    9       25    19   5    5.65   638.6    3.0      58.810
2014    9       25    19  11    5.65   638.5    3.0      58.785
2014    9       25    19  16    5.64   638.5    3.0      58.758
2014    9       25    19  21    5.64   638.4    3.0      58.731
2014    9       25    19  27    5.64   638.4    3.0      58.704
2014    9       25    19  32    5.64   638.3    3.0      58.676
2014    9       25    19  37    5.63   638.3    3.0      58.648
2014    9       25    19  43    5.63   638.2    3.0      58.620
2014    9       25    19  48    5.63   638.2    3.0      58.592
2014    9       25    19  53    5.63   638.1    3.0      58.563
2014    9       25    19  59    5.63   638.1    3.0      58.534
2014    9       25    20   4    5.62   638.0    3.0      58.505
2014    9       25    20   9    5.62   637.9    3.0      58.475
2014    9       25    20  15    5.62   637.9    3.0      58.446
2014    9       25    20  20    5.62   637.8    3.0      58.416
2014    9       25    20  25    5.61   637.8    2.9      58.386
2014    9       25    20  31    5.61   637.7    2.9      58.355
2014    9       25    20  36    5.61   637.6    2.9      58.325
2014    9       25    20  42    5.61   637.6    2.9      58.294
2014    9       25    20  47    5.61   637.5    2.9      58.264
2014    9       25    20  52    5.60   637.4    2.9      58.234
2014    9       25    20  58    5.60   637.4    2.9      58.204
2014    9       25    21   3    5.60   637.3    2.9      58.175
2014    9       25    21   8    5.60   637.2    2.9      58.146
2014    9       25    21  14    5.60   637.2    2.9      58.117
2014    9       25    21  19    5.59   637.1    2.9      58.090
2014    9       25    21  24    5.59   637.0    2.9      58.064
2014    9       25    21  30    5.59   637.0    2.9      58.039
2014    9       25    21  35    5.59   636.9    2.9      58.016
2014    9       25    21  40    5.59   636.8    2.9      57.994
2014    9       25    21  46    5.58   636.8    2.9      57.973
2014    9       25    21  51    5.58   636.7    2.9      57.955
2014    9       25    21  56    5.58   636.6    2.9      57.939
2014    9       25    22   2    5.58   636.6    2.9      57.924
2014    9       25    22   7    5.58   636.5    2.9      57.912
2014    9       25    22  12    5.58   636.4    2.9      57.901
2014    9       25    22  18    5.57   636.4    2.9      57.893
2014    9       25    22  23    5.57   636.3    2.9      57.886
2014    9       25    22  29    5.57   636.3    2.9      57.882
2014    9       25    22  34    5.57   636.2    2.9      57.879
2014    9       25    22  39    5.57   636.2    2.9      57.879
2014    9       25    22  45    5.56   636.1    2.9      57.879
2014    9       25    22  50    5.56   636.1    2.9      57.880
2014    9       25    22  55    5.56   636.1    2.9      57.882
2014    9       25    23   1    5.56   636.0    2.9      57.885
2014    9       25    23   6    5.56   636.0    2.9      57.889
2014    9       25    23  11    5.55   635.9    2.9      57.892
2014    9       25    23  17    5.55   635.9    2.9      57.895
2014    9       25    23  22    5.55   635.9    2.9      57.897
2014    9       25    23  27    5.55   635.8    2.9      57.897
2014    9       25    23  33    5.54   635.8    2.9      57.895
2014    9       25    23  38    5.54   635.7    2.9      57.892
2014    9       25    23  43    5.54   635.7    2.9      57.887
2014    9       25    23  49    5.54   635.6    2.9      57.881
2014    9       25    23  54    5.54   635.6    2.9      57.874
2014    9       25    23  59    5.53   635.5    2.9      57.865
2014    9       26     0   5    5.53   635.5    2.9      57.856
2014    9       26     0  10    5.53   635.4    2.9      57.845
2014    9       26     0  15    5.53   635.4    2.9      57.834
2014    9       26     0  21    5.52   635.3    2.9      57.821
2014    9       26     0  26    5.52   635.3    2.9      57.808
2014    9       26     0  32    5.52   635.2    2.9      57.794
2014    9       26     0  37    5.52   635.2    2.9      57.779
2014    9       26     0  42    5.52   635.1    2.9      57.764
2014    9       26     0  48    5.51   635.1    2.9      57.748
2014    9       26     0  53    5.51   635.0    2.9      57.732
2014    9       26     0  58    5.51   635.0    2.9      57.715
2014    9       26     1   4    5.51   634.9    2.9      57.698
2014    9       26     1   9    5.51   634.9    2.9      57.680
2014    9       26     1  14    5.50   634.8    2.9      57.663
2014    9       26     1  20    5.50   634.7    2.9      57.645
2014    9       26     1  25    5.50   634.7    2.9      57.626
2014    9       26     1  30    5.50   634.6    2.9      57.608
2014    9       26     1  36    5.50   634.6    2.9      57.590
2014    9       26     1  41    5.50   634.5    2.9      57.571
2014    9       26     1  46    5.49   634.5    2.9      57.553
2014    9       26     1  52    5.49   634.4    2.9      57.534
2014    9       26     1  57    5.49   634.4    2.9      57.516
2014    9       26     2   3    5.49   634.3    2.9      57.498
2014    9       26     2   8    5.49   634.2    2.9      57.480
2014    9       26     2  13    5.49   634.2    2.9      57.462
2014    9       26     2  19    5.49   634.1    2.9      57.444
2014    9       26     2  24    5.48   634.1    2.9      57.427
2014    9       26     2  29    5.48   634.0    2.9      57.410
2014    9       26     2  35    5.48   634.0    2.9      57.393
2014    9       26     2  40    5.48   633.9    2.9      57.376
2014    9       26     2  45    5.48   633.8    2.9      57.360
2014    9       26     2  51    5.48   633.8    2.9      57.345
2014    9       26     2  56    5.48   633.7    2.9      57.329
2014    9       26     3   1    5.47   633.7    2.9      57.315
2014    9       26     3   7    5.47   633.6    2.9      57.301
2014    9       26     3  12    5.47   633.6    2.9      57.288
2014    9       26     3  17    5.47   633.5    2.9      57.275
2014    9       26     3  23    5.47   633.5    2.9      57.263
2014    9       26     3  28    5.47   633.4    2.9      57.252
2014    9       26     3  33    5.47   633.4    2.9      57.241
2014    9       26     3  39    5.46   633.3    2.9      57.232
2014    9       26     3  44    5.46   633.3    2.9      57.222
2014    9       26     3  49    5.46   633.2    2.9      57.213
2014    9       26     3  55    5.46   633.1    2.9      57.204
2014    9       26     4   0    5.46   633.1    2.9      57.194
2014    9       26     4   6    5.46   633.0    2.9      57.183
2014    9       26     4  11    5.45   633.0    2.9      57.172
2014    9       26     4  16    5.45   632.9    2.9      57.160
2014    9       26     4  22    5.45   632.9    2.9      57.147
2014    9       26     4  27    5.45   632.8    2.9      57.134
2014    9       26     4  32    5.45   632.7    2.9      57.121
2014    9       26     4  38    5.45   632.7    2.9      57.108
2014    9       26     4  43    5.44   632.6    2.9      57.094
2014    9       26     4  48    5.44   632.5    2.9      57.081
2014    9       26     4  54    5.44   632.5    2.9      57.067
2014    9       26     4  59    5.44   632.4    2.9      57.054
2014    9       26     5   4    5.44   632.3    2.9      57.041
2014    9       26     5  10    5.44   632.3    2.9      57.028
2014    9       26     5  15    5.43   632.2    2.9      57.016
2014    9       26     5  20    5.43   632.1    2.9      57.004
2014    9       26     5  26    5.43   632.1    2.9      56.992
2014    9       26     5  31    5.43   632.0    2.9      56.980
2014    9       26     5  36    5.43   631.9    2.9      56.969
2014    9       26     5  42    5.43   631.9    2.9      56.958
2014    9       26     5  47    5.42   631.8    2.9      56.947
2014    9       26     5  53    5.42   631.7    2.9      56.936
2014    9       26     5  58    5.42   631.7    2.9      56.925
2014    9       26     6   3    5.42   631.6    2.9      56.913
2014    9       26     6   9    5.42   631.5    2.9      56.902
2014    9       26     6  14    5.41   631.5    2.9      56.890
2014    9       26     6  19    5.41   631.4    2.9      56.877
2014    9       26     6  25    5.41   631.3    2.9      56.864
2014    9       26     6  30    5.41   631.3    2.9      56.849
2014    9       26     6  35    5.41   631.2    2.9      56.834
2014    9       26     6  41    5.41   631.1    2.9      56.818
2014    9       26     6  46    5.40   631.0    2.9      56.802
2014    9       26     6  51    5.40   631.0    2.9      56.784
2014    9       26     6  57    5.40   630.9    2.9      56.766
2014    9       26     7   2    5.40   630.8    2.9      56.747
2014    9       26     7   7    5.40   630.7    2.9      56.728
2014    9       26     7  13    5.40   630.6    2.9      56.709
2014    9       26     7  18    5.39   630.6    2.9      56.689
2014    9       26     7  23    5.39   630.5    2.9      56.668
2014    9       26     7  29    5.39   630.4    2.9      56.648
2014    9       26     7  34    5.39   630.3    2.9      56.627
2014    9       26     7  40    5.39   630.2    2.9      56.606
2014    9       26     7  45    5.39   630.1    2.9      56.586
2014    9       26     7  50    5.39   630.0    2.9      56.565
2014    9       26     7  56    5.38   630.0    2.9      56.545
2014    9       26     8   1    5.38   629.9    2.9      56.525
2014    9       26     8   6    5.38   629.8    2.9      56.505
2014    9       26     8  12    5.38   629.7    2.9      56.486
2014    9       26     8  17    5.38   629.6    2.9      56.467
2014    9       26     8  22    5.38   629.6    2.9      56.449
2014    9       26     8  28    5.38   629.5    2.9      56.431
2014    9       26     8  33    5.38   629.4    2.9      56.414
2014    9       26     8  38    5.38   629.3    2.9      56.398
2014    9       26     8  44    5.37   629.3    2.9      56.382
2014    9       26     8  49    5.37   629.2    2.9      56.367
2014    9       26     8  54    5.37   629.1    2.9      56.352
2014    9       26     9   0    5.37   629.1    2.9      56.339
2014    9       26     9   5    5.37   629.0    2.9      56.325
2014    9       26     9  10    5.37   628.9    2.9      56.313
2014    9       26     9  16    5.37   628.9    2.9      56.300
2014    9       26     9  21    5.37   628.8    2.9      56.289
2014    9       26     9  27    5.37   628.7    2.9      56.278
2014    9       26     9  32    5.37   628.7    2.9      56.267
2014    9       26     9  37    5.37   628.6    2.9      56.256
2014    9       26     9  43    5.37   628.6    2.9      56.246
2014    9       26     9  48    5.37   628.5    2.9      56.236
2014    9       26     9  53    5.36   628.5    2.9      56.227
2014    9       26     9  59    5.36   628.4    2.9      56.218
2014    9       26    10   4    5.36   628.4    2.9      56.210
2014    9       26    10   9    5.36   628.3    2.9      56.203
2014    9       26    10  15    5.36   628.3    2.9      56.196
2014    9       26    10  20    5.36   628.2    2.9      56.190
2014    9       26    10  25    5.36   628.2    2.9      56.184
2014    9       26    10  31    5.36   628.1    2.9      56.179
2014    9       26    10  36    5.36   628.1    2.9      56.176
2014    9       26    10  41    5.35   628.0    2.9      56.173
2014    9       26    10  47    5.35   628.0    2.9      56.170
2014    9       26    10  52    5.35   627.9    2.9      56.169
2014    9       26    10  57    5.35   627.9    2.9      56.168
2014    9       26    11   3    5.35   627.8    2.9      56.166
2014    9       26    11   8    5.35   627.8    2.9      56.163
2014    9       26    11  14    5.35   627.7    2.9      56.160
2014    9       26    11  19    5.34   627.7    2.9      56.156
2014    9       26    11  24    5.34   627.6    2.9      56.152
2014    9       26    11  30    5.34   627.6    2.9      56.147
2014    9       26    11  35    5.34   627.5    2.9      56.141
2014    9       26    11  40    5.34   627.5    2.9      56.134
2014    9       26    11  46    5.34   627.4    2.9      56.127
2014    9       26    11  51    5.34   627.4    2.9      56.120
2014    9       26    11  56    5.33   627.3    2.9      56.112
2014    9       26    12   2    5.33   627.2    2.9      56.104
2014    9       26    12   7    5.33   627.2    2.9      56.095
2014    9       26    12  12    5.33   627.1    2.9      56.086
2014    9       26    12  18    5.33   627.0    2.9      56.077
2014    9       26    12  23    5.33   627.0    2.9      56.068
2014    9       26    12  28    5.32   626.9    2.9      56.058
2014    9       26    12  34    5.32   626.8    2.9      56.047
2014    9       26    12  39    5.32   626.8    2.9      56.037
2014    9       26    12  44    5.32   626.7    2.9      56.026
2014    9       26    12  50    5.32   626.6    2.9      56.015
2014    9       26    12  55    5.32   626.5    2.9      56.003
2014    9       26    13   1    5.32   626.5    2.9      55.991
2014    9       26    13   6    5.31   626.4    2.9      55.979
2014    9       26    13  11    5.31   626.3    2.9      55.967
2014    9       26    13  17    5.31   626.2    2.9      55.955
2014    9       26    13  22    5.31   626.1    2.9      55.942
2014    9       26    13  27    5.31   626.0    2.9      55.929
2014    9       26    13  33    5.31   626.0    2.9      55.916
2014    9       26    13  38    5.31   625.9    2.9      55.903
2014    9       26    13  43    5.30   625.8    2.9      55.889
2014    9       26    13  49    5.30   625.7    2.9      55.876
2014    9       26    13  54    5.30   625.6    2.9      55.863
2014    9       26    13  59    5.30   625.5    2.9      55.850
2014    9       26    14   5    5.30   625.4    2.9      55.837
2014    9       26    14  10    5.30   625.3    2.9      55.825
2014    9       26    14  15    5.30   625.2    2.9      55.813
2014    9       26    14  21    5.30   625.2    2.9      55.801
2014    9       26    14  26    5.30   625.1    2.9      55.790
2014    9       26    14  31    5.29   625.0    2.9      55.780
2014    9       26    14  37    5.29   624.9    2.9      55.770
2014    9       26    14  42    5.29   624.8    2.9      55.760
2014    9       26    14  47    5.29   624.7    2.9      55.752
2014    9       26    14  53    5.29   624.6    2.9      55.744
2014    9       26    14  58    5.29   624.5    2.9      55.736
2014    9       26    15   4    5.29   624.4    2.9      55.729
2014    9       26    15   9    5.29   624.4    2.9      55.722
2014    9       26    15  14    5.29   624.3    2.9      55.714
2014    9       26    15  20    5.29   624.2    2.9      55.706
2014    9       26    15  25    5.29   624.1    2.9      55.698
2014    9       26    15  30    5.29   624.0    2.9      55.689
2014    9       26    15  36    5.29   624.0    2.9      55.680
2014    9       26    15  41    5.28   623.9    2.9      55.671
2014    9       26    15  46    5.28   623.8    2.9      55.662
2014    9       26    15  52    5.28   623.7    2.9      55.652
2014    9       26    15  57    5.28   623.7    2.9      55.642
2014    9       26    16   2    5.28   623.6    2.9      55.632
2014    9       26    16   8    5.28   623.5    2.9      55.621
2014    9       26    16  13    5.28   623.5    2.9      55.611
2014    9       26    16  18    5.28   623.4    2.9      55.599
2014    9       26    16  24    5.28   623.3    2.9      55.588
2014    9       26    16  29    5.28   623.3    2.9      55.576
2014    9       26    16  35    5.28   623.2    2.9      55.564
2014    9       26    16  40    5.28   623.1    2.9      55.551
2014    9       26    16  45    5.28   623.1    2.9      55.538
2014    9       26    16  51    5.28   623.0    2.9      55.524
2014    9       26    16  56    5.28   622.9    2.9      55.509
2014    9       26    17   1    5.27   622.9    2.9      55.495
2014    9       26    17   7    5.27   622.8    2.9      55.479
2014    9       26    17  12    5.27   622.7    2.9      55.464
2014    9       26    17  17    5.27   622.7    2.9      55.447
2014    9       26    17  23    5.27   622.6    2.9      55.431
2014    9       26    17  28    5.27   622.5    2.9      55.413
2014    9       26    17  33    5.27   622.5    2.9      55.396
2014    9       26    17  39    5.27   622.4    2.9      55.378
2014    9       26    17  44    5.27   622.3    2.9      55.359
2014    9       26    17  49    5.26   622.2    2.9      55.341
2014    9       26    17  55    5.26   622.2    2.9      55.322
2014    9       26    18   0    5.26   622.1    2.9      55.303
2014    9       26    18   5    5.26   622.0    2.9      55.283
2014    9       26    18  11    5.26   622.0    2.9      55.263
2014    9       26    18  16    5.26   621.9    2.9      55.243
2014    9       26    18  21    5.26   621.8    2.9      55.223
2014    9       26    18  27    5.26   621.7    2.9      55.203
2014    9       26    18  32    5.26   621.6    2.9      55.183
2014    9       26    18  38    5.25   621.6    2.9      55.162
2014    9       26    18  43    5.25   621.5    2.9      55.142
2014    9       26    18  48    5.25   621.4    2.9      55.122
2014    9       26    18  54    5.25   621.3    2.9      55.102
2014    9       26    18  59    5.25   621.2    2.9      55.082
2014    9       26    19   4    5.25   621.2    2.9      55.062
2014    9       26    19  10    5.25   621.1    2.9      55.042
2014    9       26    19  15    5.25   621.0    2.9      55.023
2014    9       26    19  20    5.24   620.9    2.9      55.004
2014    9       26    19  26    5.24   620.8    2.9      54.986
2014    9       26    19  31    5.24   620.7    2.9      54.967
2014    9       26    19  36    5.24   620.6    2.9      54.950
2014    9       26    19  42    5.24   620.5    2.9      54.933
2014    9       26    19  47    5.24   620.4    2.9      54.916
2014    9       26    19  52    5.24   620.4    2.9      54.900
2014    9       26    19  58    5.24   620.3    2.9      54.885
2014    9       26    20   3    5.24   620.2    2.9      54.870
2014    9       26    20   8    5.23   620.1    2.9      54.857
2014    9       26    20  14    5.23   620.0    2.9      54.843
2014    9       26    20  19    5.23   619.9    2.9      54.831
2014    9       26    20  25    5.23   619.8    2.9      54.820
2014    9       26    20  30    5.23   619.7    2.9      54.810
2014    9       26    20  35    5.23   619.6    2.9      54.800
2014    9       26    20  41    5.23   619.5    2.9      54.791
2014    9       26    20  46    5.23   619.4    2.9      54.784
2014    9       26    20  51    5.23   619.3    2.9      54.777
2014    9       26    20  57    5.23   619.2    2.9      54.772
2014    9       26    21   2    5.23   619.1    2.9      54.767
2014    9       26    21   7    5.22   619.0    2.9      54.764
2014    9       26    21  13    5.22   618.9    2.9      54.761
2014    9       26    21  18    5.22   618.8    2.9      54.760
2014    9       26    21  23    5.22   618.7    2.9      54.759
2014    9       26    21  29    5.22   618.6    2.9      54.760
2014    9       26    21  34    5.22   618.6    2.9      54.761
2014    9       26    21  39    5.22   618.5    2.9      54.764
2014    9       26    21  45    5.22   618.4    2.9      54.768
2014    9       26    21  50    5.22   618.3    2.9      54.772
2014    9       26    21  55    5.22   618.2    2.9      54.778
2014    9       26    22   1    5.22   618.1    2.9      54.785
2014    9       26    22   6    5.22   618.0    2.9      54.791
2014    9       26    22  11    5.22   617.9    2.9      54.798
2014    9       26    22  17    5.22   617.9    2.9      54.806
2014    9       26    22  22    5.22   617.8    2.9      54.812
2014    9       26    22  28    5.22   617.7    2.9      54.817
2014    9       26    22  33    5.22   617.6    2.9      54.821
2014    9       26    22  38    5.22   617.5    2.9      54.825
2014    9       26    22  44    5.22   617.4    2.9      54.826
2014    9       26    22  49    5.21   617.3    2.9      54.827
2014    9       26    22  54    5.21   617.3    2.9      54.827
2014    9       26    23   0    5.21   617.2    2.9      54.826
2014    9       26    23   5    5.21   617.1    2.9      54.824
2014    9       26    23  10    5.21   617.0    2.9      54.820
2014    9       26    23  16    5.21   616.9    2.9      54.816
2014    9       26    23  21    5.21   616.8    2.9      54.810
2014    9       26    23  26    5.21   616.7    2.9      54.804
2014    9       26    23  32    5.21   616.6    2.9      54.797
2014    9       26    23  37    5.21   616.5    2.9      54.790
2014    9       26    23  42    5.21   616.5    2.9      54.781
2014    9       26    23  48    5.21   616.4    2.9      54.772
2014    9       26    23  53    5.21   616.3    2.9      54.763
2014    9       26    23  59    5.21   616.2    2.9      54.753
2014    9       27     0   4    5.20   616.1    2.9      54.742
2014    9       27     0   9    5.20   616.0    2.9      54.732
2014    9       27     0  15    5.20   615.9    2.9      54.721
2014    9       27     0  20    5.20   615.8    2.9      54.710
2014    9       27     0  25    5.20   615.7    2.9      54.700
2014    9       27     0  31    5.20   615.6    2.9      54.689
2014    9       27     0  36    5.20   615.5    2.9      54.679
2014    9       27     0  41    5.20   615.4    2.9      54.669
2014    9       27     0  47    5.20   615.3    2.9      54.660
2014    9       27     0  52    5.20   615.2    2.9      54.651
2014    9       27     0  57    5.20   615.1    2.9      54.643
2014    9       27     1   3    5.20   615.0    2.9      54.636
2014    9       27     1   8    5.20   614.9    2.9      54.629
2014    9       27     1  13    5.20   614.8    2.9      54.622
2014    9       27     1  19    5.19   614.7    2.9      54.615
2014    9       27     1  24    5.19   614.6    2.9      54.609
2014    9       27     1  29    5.19   614.5    2.9      54.602
2014    9       27     1  35    5.19   614.4    2.9      54.596
2014    9       27     1  40    5.19   614.3    2.9      54.589
2014    9       27     1  46    5.19   614.2    2.9      54.582
2014    9       27     1  51    5.19   614.1    2.9      54.575
2014    9       27     1  56    5.19   614.0    2.9      54.567
2014    9       27     2   2    5.19   613.9    2.9      54.558
2014    9       27     2   7    5.19   613.8    2.9      54.547
2014    9       27     2  12    5.19   613.7    2.9      54.536
2014    9       27     2  18    5.19   613.6    2.9      54.524
2014    9       27     2  23    5.19   613.5    2.9      54.511
2014    9       27     2  28    5.18   613.4    2.9      54.497
2014    9       27     2  34    5.18   613.3    2.9      54.483
2014    9       27     2  39    5.18   613.2    2.9      54.468
2014    9       27     2  44    5.18   613.1    2.9      54.453
2014    9       27     2  50    5.18   613.0    2.9      54.437
2014    9       27     2  55    5.18   612.9    2.9      54.421
2014    9       27     3   0    5.18   612.8    2.9      54.405
2014    9       27     3   6    5.18   612.7    2.9      54.390
2014    9       27     3  11    5.18   612.6    2.9      54.374
2014    9       27     3  16    5.18   612.5    2.9      54.358
2014    9       27     3  22    5.18   612.4    2.9      54.343
2014    9       27     3  27    5.18   612.3    2.9      54.328
2014    9       27     3  32    5.18   612.1    2.9      54.313
2014    9       27     3  38    5.18   612.0    2.9      54.299
2014    9       27     3  43    5.18   611.9    2.9      54.286
2014    9       27     3  49    5.17   611.8    2.9      54.273
2014    9       27     3  54    5.17   611.7    2.9      54.260
2014    9       27     3  59    5.17   611.6    2.9      54.248
2014    9       27     4   5    5.17   611.5    3.0      54.236
2014    9       27     4  10    5.17   611.4    3.0      54.225
2014    9       27     4  15    5.17   611.3    3.0      54.215
2014    9       27     4  21    5.17   611.2    3.0      54.204
2014    9       27     4  26    5.17   611.1    3.0      54.194
2014    9       27     4  31    5.17   611.0    3.0      54.185
2014    9       27     4  37    5.17   611.0    3.0      54.176
2014    9       27     4  42    5.17   610.9    3.0      54.167
2014    9       27     4  47    5.17   610.8    3.0      54.158
2014    9       27     4  53    5.17   610.7    3.0      54.149
2014    9       27     4  58    5.17   610.6    3.0      54.141
2014    9       27     5   3    5.17   610.5    3.0      54.132
2014    9       27     5   9    5.17   610.4    3.0      54.123
2014    9       27     5  14    5.17   610.3    3.0      54.115
2014    9       27     5  19    5.17   610.2    3.0      54.106
2014    9       27     5  25    5.17   610.1    3.0      54.098
2014    9       27     5  30    5.17   609.9    3.0      54.088
2014    9       27     5  36    5.17   609.8    3.0      54.079
2014    9       27     5  41    5.17   609.7    3.0      54.069
2014    9       27     5  46    5.17   609.6    3.0      54.059
2014    9       27     5  52    5.17   609.5    3.0      54.048
2014    9       27     5  57    5.17   609.4    3.0      54.037
2014    9       27     6   2    5.16   609.3    3.0      54.026
2014    9       27     6   8    5.16   609.2    3.0      54.014
2014    9       27     6  13    5.16   609.1    3.0      54.002
2014    9       27     6  18    5.16   608.9    3.0      53.990
2014    9       27     6  24    5.16   608.8    3.0      53.977
2014    9       27     6  29    5.16   608.7    3.0      53.965
2014    9       27     6  34    5.16   608.6    3.0      53.952
2014    9       27     6  40    5.16   608.5    3.0      53.940
2014    9       27     6  45    5.16   608.3    3.0      53.927
2014    9       27     6  50    5.16   608.2    3.0      53.915
2014    9       27     6  56    5.16   608.1    3.0      53.903
2014    9       27     7   1    5.16   608.0    3.0      53.892
2014    9       27     7   6    5.16   607.8    3.0      53.881
2014    9       27     7  12    5.16   607.7    3.0      53.870
2014    9       27     7  17    5.16   607.6    3.0      53.861
2014    9       27     7  23    5.16   607.4    3.0      53.852
2014    9       27     7  28    5.16   607.3    3.0      53.845
2014    9       27     7  33    5.16   607.2    3.0      53.838
2014    9       27     7  39    5.16   607.0    3.0      53.834
2014    9       27     7  44    5.16   606.9    3.0      53.830
2014    9       27     7  49    5.16   606.8    3.0      53.828
2014    9       27     7  55    5.16   606.6    3.0      53.827
2014    9       27     8   0    5.16   606.5    3.0      53.829
2014    9       27     8   5    5.16   606.4    3.0      53.832
2014    9       27     8  11    5.16   606.2    3.0      53.837
2014    9       27     8  16    5.15   606.1    3.0      53.845
2014    9       27     8  21    5.15   606.0    3.0      53.853
2014    9       27     8  27    5.15   605.9    3.0      53.863
2014    9       27     8  32    5.15   605.7    3.0      53.875
2014    9       27     8  37    5.15   605.6    3.0      53.888
2014    9       27     8  43    5.15   605.5    3.0      53.903
2014    9       27     8  48    5.15   605.4    3.0      53.918
2014    9       27     8  53    5.15   605.2    3.0      53.936
2014    9       27     8  59    5.15   605.1    3.0      53.954
2014    9       27     9   4    5.15   605.0    3.0      53.972
2014    9       27     9  10    5.15   604.9    3.0      53.990
2014    9       27     9  15    5.15   604.8    3.0      54.007
2014    9       27     9  20    5.15   604.6    3.0      54.024
2014    9       27     9  26    5.15   604.5    3.0      54.041
2014    9       27     9  31    5.15   604.4    3.0      54.058
2014    9       27     9  36    5.15   604.3    3.0      54.075
2014    9       27     9  42    5.15   604.2    3.0      54.092
2014    9       27     9  47    5.15   604.1    3.0      54.108
2014    9       27     9  52    5.15   604.0    3.0      54.123
2014    9       27     9  58    5.15   603.9    3.0      54.137
2014    9       27    10   3    5.15   603.7    3.0      54.149
2014    9       27    10   8    5.15   603.6    3.0      54.159
2014    9       27    10  14    5.15   603.5    3.0      54.167
2014    9       27    10  19    5.15   603.4    3.0      54.174
2014    9       27    10  24    5.15   603.3    3.1      54.180
2014    9       27    10  30    5.15   603.2    3.1      54.184
2014    9       27    10  35    5.15   603.1    3.1      54.188
2014    9       27    10  40    5.15   603.0    3.1      54.189
2014    9       27    10  46    5.15   602.9    3.1      54.190
2014    9       27    10  51    5.15   602.8    3.1      54.190
2014    9       27    10  56    5.15   602.7    3.1      54.189
2014    9       27    11   2    5.15   602.5    3.1      54.186
2014    9       27    11   7    5.15   602.4    3.1      54.183
2014    9       27    11  13    5.15   602.3    3.1      54.179
2014    9       27    11  18    5.15   602.2    3.1      54.174
2014    9       27    11  23    5.15   602.1    3.1      54.169
2014    9       27    11  29    5.15   602.0    3.1      54.162
2014    9       27    11  34    5.15   601.9    3.1      54.155
2014    9       27    11  39    5.15   601.8    3.1      54.147
2014    9       27    11  45    5.15   601.7    3.1      54.139
2014    9       27    11  50    5.15   601.6    3.1      54.130
2014    9       27    11  55    5.15   601.5    3.1      54.120
2014    9       27    12   1    5.15   601.4    3.1      54.109
2014    9       27    12   6    5.15   601.3    3.1      54.099
2014    9       27    12  11    5.15   601.2    3.1      54.087
2014    9       27    12  17    5.15   601.0    3.1      54.075
2014    9       27    12  22    5.15   600.9    3.1      54.062
2014    9       27    12  27    5.15   600.8    3.1      54.049
2014    9       27    12  33    5.15   600.7    3.1      54.035
2014    9       27    12  38    5.15   600.6    3.1      54.021
2014    9       27    12  43    5.15   600.5    3.1      54.006
2014    9       27    12  49    5.15   600.4    3.1      53.991
2014    9       27    12  54    5.15   600.3    3.1      53.976
2014    9       27    13   0    5.15   600.2    3.1      53.959
2014    9       27    13   5    5.15   600.1    3.1      53.943
2014    9       27    13  10    5.15   600.0    3.1      53.927
2014    9       27    13  16    5.15   599.8    3.1      53.910
2014    9       27    13  21    5.15   599.7    3.1      53.892
2014    9       27    13  26    5.15   599.6    3.1      53.875
2014    9       27    13  32    5.15   599.5    3.1      53.858
2014    9       27    13  37    5.15   599.4    3.1      53.841
2014    9       27    13  42    5.15   599.3    3.1      53.823
2014    9       27    13  48    5.15   599.2    3.1      53.806
2014    9       27    13  53    5.15   599.0    3.1      53.789
2014    9       27    13  58    5.15   598.9    3.1      53.773
2014    9       27    14   4    5.15   598.8    3.1      53.757
2014    9       27    14   9    5.15   598.7    3.1      53.741
2014    9       27    14  14    5.15   598.6    3.1      53.726
2014    9       27    14  20    5.15   598.4    3.1      53.711
2014    9       27    14  25    5.15   598.3    3.1      53.698
2014    9       27    14  31    5.15   598.2    3.1      53.685
2014    9       27    14  36    5.15   598.1    3.1      53.673
2014    9       27    14  41    5.15   597.9    3.1      53.662
2014    9       27    14  47    5.15   597.8    3.1      53.652
2014    9       27    14  52    5.15   597.7    3.1      53.643
2014    9       27    14  57    5.15   597.6    3.1      53.636
2014    9       27    15   3    5.15   597.4    3.1      53.629
2014    9       27    15   8    5.15   597.3    3.1      53.624
2014    9       27    15  13    5.15   597.2    3.1      53.621
2014    9       27    15  19    5.15   597.1    3.1      53.619
2014    9       27    15  24    5.15   596.9    3.1      53.619
2014    9       27    15  29    5.15   596.8    3.1      53.620
2014    9       27    15  35    5.15   596.7    3.1      53.623
2014    9       27    15  40    5.15   596.5    3.1      53.627
2014    9       27    15  45    5.15   596.4    3.1      53.634
2014    9       27    15  51    5.15   596.3    3.1      53.642
2014    9       27    15  56    5.15   596.2    3.1      53.652
2014    9       27    16   1    5.15   596.0    3.1      53.664
2014    9       27    16   7    5.15   595.9    3.1      53.679
2014    9       27    16  12    5.15   595.8    3.1      53.695
2014    9       27    16  17    5.15   595.7    3.1      53.712
2014    9       27    16  23    5.15   595.6    3.1      53.730
2014    9       27    16  28    5.15   595.4    3.1      53.750
2014    9       27    16  34    5.15   595.3    3.1      53.771
2014    9       27    16  39    5.15   595.2    3.1      53.794
2014    9       27    16  44    5.15   595.1    3.1      53.819
2014    9       27    16  50    5.15   595.0    3.1      53.844
2014    9       27    16  55    5.15   594.9    3.1      53.870
2014    9       27    17   0    5.15   594.8    3.1      53.896
2014    9       27    17   6    5.15   594.7    3.1      53.921
2014    9       27    17  11    5.16   594.6    3.2      53.944
2014    9       27    17  16    5.16   594.5    3.2      53.967
2014    9       27    17  22    5.16   594.4    3.2      53.988
2014    9       27    17  27    5.16   594.3    3.2      54.008
2014    9       27    17  32    5.16   594.2    3.2      54.027
2014    9       27    17  38    5.16   594.0    3.2      54.045
2014    9       27    17  43    5.16   593.9    3.2      54.062
2014    9       27    17  48    5.16   593.8    3.2      54.079
2014    9       27    17  54    5.16   593.7    3.2      54.094
2014    9       27    17  59    5.16   593.6    3.2      54.109
2014    9       27    18   4    5.16   593.5    3.2      54.122
2014    9       27    18  10    5.16   593.4    3.2      54.135
2014    9       27    18  15    5.16   593.3    3.2      54.147
2014    9       27    18  21    5.16   593.2    3.2      54.158
2014    9       27    18  26    5.16   593.1    3.2      54.168
2014    9       27    18  31    5.16   593.0    3.2      54.177
2014    9       27    18  37    5.16   592.9    3.2      54.186
2014    9       27    18  42    5.16   592.8    3.2      54.193
2014    9       27    18  47    5.16   592.7    3.2      54.200
2014    9       27    18  53    5.16   592.6    3.2      54.207
2014    9       27    18  58    5.16   592.5    3.2      54.212
2014    9       27    19   3    5.16   592.4    3.2      54.217
2014    9       27    19   9    5.16   592.3    3.2      54.221
2014    9       27    19  14    5.16   592.2    3.2      54.224
2014    9       27    19  19    5.16   592.1    3.2      54.227
2014    9       27    19  25    5.16   592.0    3.2      54.230
2014    9       27    19  30    5.16   591.9    3.2      54.231
2014    9       27    19  35    5.16   591.8    3.2      54.232
2014    9       27    19  41    5.16   591.7    3.2      54.232
2014    9       27    19  46    5.16   591.6    3.2      54.232
2014    9       27    19  51    5.16   591.5    3.2      54.231
2014    9       27    19  57    5.16   591.4    3.2      54.230
2014    9       27    20   2    5.16   591.3    3.2      54.228
2014    9       27    20   8    5.16   591.2    3.2      54.226
2014    9       27    20  13    5.16   591.1    3.2      54.223
2014    9       27    20  18    5.16   591.0    3.2      54.220
2014    9       27    20  24    5.16   590.9    3.2      54.216
2014    9       27    20  29    5.16   590.8    3.2      54.212
2014    9       27    20  34    5.16   590.7    3.2      54.207
2014    9       27    20  40    5.16   590.6    3.2      54.202
2014    9       27    20  45    5.16   590.5    3.2      54.196
2014    9       27    20  50    5.16   590.4    3.2      54.190
2014    9       27    20  56    5.16   590.3    3.2      54.184
2014    9       27    21   1    5.16   590.2    3.2      54.178
2014    9       27    21   6    5.16   590.1    3.2      54.171
2014    9       27    21  12    5.16   590.0    3.2      54.164
2014    9       27    21  17    5.16   589.9    3.2      54.157
2014    9       27    21  22    5.16   589.8    3.2      54.150
2014    9       27    21  28    5.16   589.7    3.2      54.142
2014    9       27    21  33    5.16   589.6    3.2      54.135
2014    9       27    21  38    5.16   589.5    3.2      54.128
2014    9       27    21  44    5.16   589.4    3.2      54.121
2014    9       27    21  49    5.16   589.3    3.2      54.114
2014    9       27    21  55    5.16   589.2    3.2      54.107
2014    9       27    22   0    5.16   589.1    3.2      54.101
2014    9       27    22   5    5.16   589.0    3.2      54.095
2014    9       27    22  11    5.16   588.9    3.2      54.089
2014    9       27    22  16    5.16   588.8    3.2      54.084
2014    9       27    22  21    5.16   588.7    3.2      54.079
2014    9       27    22  27    5.16   588.6    3.2      54.075
2014    9       27    22  32    5.16   588.5    3.2      54.071
2014    9       27    22  37    5.16   588.4    3.2      54.068
2014    9       27    22  43    5.16   588.3    3.2      54.065
2014    9       27    22  48    5.16   588.2    3.2      54.064
2014    9       27    22  53    5.16   588.1    3.2      54.063
2014    9       27    22  59    5.16   588.0    3.2      54.062
2014    9       27    23   4    5.17   587.9    3.2      54.063
2014    9       27    23   9    5.17   587.8    3.2      54.064
2014    9       27    23  15    5.17   587.7    3.2      54.066
2014    9       27    23  20    5.17   587.6    3.2      54.069
2014    9       27    23  25    5.17   587.5    3.2      54.072
2014    9       27    23  31    5.17   587.4    3.3      54.076
2014    9       27    23  36    5.17   587.3    3.3      54.081
2014    9       27    23  42    5.17   587.2    3.3      54.087
2014    9       27    23  47    5.17   587.1    3.3      54.093
2014    9       27    23  52    5.17   587.0    3.3      54.100
2014    9       27    23  58    5.17   586.9    3.3      54.108
2014    9       28     0   3    5.17   586.8    3.3      54.115
2014    9       28     0   8    5.17   586.7    3.3      54.123
2014    9       28     0  14    5.17   586.6    3.3      54.131
2014    9       28     0  19    5.17   586.5    3.3      54.139
2014    9       28     0  24    5.17   586.4    3.3      54.147
2014    9       28     0  30    5.17   586.3    3.3      54.155
2014    9       28     0  35    5.17   586.2    3.3      54.163
2014    9       28     0  40    5.17   586.1    3.3      54.171
2014    9       28     0  46    5.17   586.0    3.3      54.179
2014    9       28     0  51    5.17   585.9    3.3      54.187
2014    9       28     0  56    5.17   585.8    3.3      54.194
2014    9       28     1   2    5.17   585.7    3.3      54.202
2014    9       28     1   7    5.17   585.6    3.3      54.210
2014    9       28     1  12    5.17   585.5    3.3      54.217
2014    9       28     1  18    5.17   585.5    3.3      54.224
2014    9       28     1  23    5.17   585.4    3.3      54.231
2014    9       28     1  28    5.17   585.3    3.3      54.238
2014    9       28     1  34    5.17   585.2    3.3      54.244
2014    9       28     1  39    5.17   585.1    3.3      54.250
2014    9       28     1  45    5.17   585.0    3.3      54.256
2014    9       28     1  50    5.17   584.9    3.3      54.262
2014    9       28     1  55    5.17   584.8    3.3      54.267
2014    9       28     2   1    5.17   584.7    3.3      54.272
2014    9       28     2   6    5.17   584.6    3.3      54.277
2014    9       28     2  11    5.17   584.5    3.3      54.282
2014    9       28     2  17    5.17   584.4    3.3      54.287
2014    9       28     2  22    5.17   584.3    3.3      54.291
2014    9       28     2  27    5.17   584.2    3.3      54.296
2014    9       28     2  33    5.17   584.1    3.3      54.301
2014    9       28     2  38    5.17   584.0    3.3      54.306
2014    9       28     2  43    5.17   583.9    3.3      54.310
2014    9       28     2  49    5.17   583.8    3.3      54.315
2014    9       28     2  54    5.17   583.7    3.3      54.320
2014    9       28     2  59    5.17   583.6    3.3      54.325
2014    9       28     3   5    5.17   583.5    3.3      54.330
2014    9       28     3  10    5.17   583.4    3.3      54.335
2014    9       28     3  15    5.17   583.3    3.3      54.339
2014    9       28     3  21    5.17   583.2    3.3      54.344
2014    9       28     3  26    5.17   583.1    3.3      54.348
2014    9       28     3  32    5.17   583.0    3.3      54.352
2014    9       28     3  37    5.17   582.9    3.3      54.356
2014    9       28     3  42    5.17   582.8    3.3      54.360
2014    9       28     3  48    5.17   582.7    3.3      54.363
2014    9       28     3  53    5.17   582.6    3.3      54.366
2014    9       28     3  58    5.17   582.5    3.3      54.369
2014    9       28     4   4    5.17   582.4    3.3      54.371
2014    9       28     4   9    5.17   582.3    3.3      54.373
2014    9       28     4  14    5.17   582.2    3.3      54.375
2014    9       28     4  20    5.17   582.1    3.3      54.376
2014    9       28     4  25    5.17   582.0    3.3      54.377
2014    9       28     4  30    5.17   581.9    3.3      54.377
2014    9       28     4  36    5.17   581.8    3.3      54.377
2014    9       28     4  41    5.17   581.7    3.3      54.377
2014    9       28     4  46    5.17   581.6    3.3      54.376
2014    9       28     4  52    5.17   581.5    3.3      54.375
2014    9       28     4  57    5.17   581.4    3.4      54.373
2014    9       28     5   3    5.17   581.3    3.4      54.371
2014    9       28     5   8    5.16   581.2    3.4      54.369
2014    9       28     5  13    5.16   581.1    3.4      54.367
2014    9       28     5  19    5.16   581.0    3.4      54.364
2014    9       28     5  24    5.16   580.9    3.4      54.361
2014    9       28     5  29    5.16   580.8    3.4      54.358
2014    9       28     5  35    5.16   580.7    3.4      54.355
2014    9       28     5  40    5.16   580.6    3.4      54.352
2014    9       28     5  45    5.16   580.5    3.4      54.348
2014    9       28     5  51    5.16   580.4    3.4      54.344
2014    9       28     5  56    5.16   580.3    3.4      54.340
2014    9       28     6   1    5.16   580.2    3.4      54.337
2014    9       28     6   7    5.16   580.1    3.4      54.332
2014    9       28     6  12    5.16   580.0    3.4      54.328
2014    9       28     6  17    5.16   579.9    3.4      54.323
2014    9       28     6  23    5.16   579.8    3.4      54.318
2014    9       28     6  28    5.16   579.7    3.4      54.313
2014    9       28     6  33    5.16   579.6    3.4      54.308
2014    9       28     6  39    5.16   579.5    3.4      54.303
2014    9       28     6  44    5.16   579.4    3.4      54.297
2014    9       28     6  49    5.16   579.3    3.4      54.292
2014    9       28     6  55    5.16   579.2    3.4      54.286
2014    9       28     7   0    5.16   579.1    3.4      54.280
2014    9       28     7   6    5.16   579.0    3.4      54.274
2014    9       28     7  11    5.16   578.9    3.4      54.268
2014    9       28     7  16    5.16   578.8    3.4      54.261
2014    9       28     7  22    5.16   578.7    3.4      54.255
2014    9       28     7  27    5.16   578.6    3.4      54.248
2014    9       28     7  32    5.16   578.5    3.4      54.242
2014    9       28     7  38    5.16   578.4    3.4      54.235
2014    9       28     7  43    5.16   578.3    3.4      54.228
2014    9       28     7  48    5.16   578.2    3.4      54.221
2014    9       28     7  54    5.16   578.1    3.4      54.214
2014    9       28     7  59    5.16   578.0    3.4      54.206
2014    9       28     8   4    5.16   577.9    3.4      54.199
2014    9       28     8  10    5.16   577.8    3.4      54.192
2014    9       28     8  15    5.15   577.7    3.4      54.184
2014    9       28     8  20    5.15   577.6    3.4      54.177
2014    9       28     8  26    5.15   577.5    3.4      54.169
2014    9       28     8  31    5.15   577.4    3.4      54.162
2014    9       28     8  36    5.15   577.2    3.4      54.155
2014    9       28     8  42    5.15   577.1    3.4      54.147
2014    9       28     8  47    5.15   577.0    3.4      54.140
2014    9       28     8  53    5.15   576.9    3.4      54.133
2014    9       28     8  58    5.15   576.8    3.4      54.126
2014    9       28     9   3    5.15   576.7    3.4      54.120
2014    9       28     9   9    5.15   576.6    3.4      54.113
2014    9       28     9  14    5.15   576.5    3.4      54.107
2014    9       28     9  19    5.15   576.4    3.4      54.101
2014    9       28     9  25    5.15   576.3    3.4      54.096
2014    9       28     9  30    5.15   576.2    3.4      54.091
2014    9       28     9  35    5.15   576.0    3.4      54.086
2014    9       28     9  41    5.15   575.9    3.4      54.082
2014    9       28     9  46    5.15   575.8    3.4      54.078
2014    9       28     9  51    5.15   575.7    3.4      54.075
2014    9       28     9  57    5.15   575.6    3.4      54.072
2014    9       28    10   2    5.15   575.5    3.4      54.070
2014    9       28    10   7    5.15   575.4    3.4      54.068
2014    9       28    10  13    5.15   575.3    3.4      54.067
2014    9       28    10  18    5.15   575.2    3.4      54.066
2014    9       28    10  23    5.15   575.1    3.4      54.066
2014    9       28    10  29    5.15   575.0    3.4      54.066
2014    9       28    10  34    5.15   574.8    3.4      54.067
2014    9       28    10  39    5.15   574.7    3.4      54.069
2014    9       28    10  45    5.14   574.6    3.4      54.070
2014    9       28    10  50    5.14   574.5    3.4      54.072
2014    9       28    10  56    5.14   574.4    3.4      54.074
2014    9       28    11   1    5.14   574.3    3.4      54.077
2014    9       28    11   6    5.14   574.2    3.4      54.079
2014    9       28    11  12    5.14   574.1    3.4      54.082
2014    9       28    11  17    5.14   574.0    3.4      54.085
2014    9       28    11  22    5.14   573.9    3.4      54.088
2014    9       28    11  28    5.14   573.8    3.4      54.091
2014    9       28    11  33    5.14   573.7    3.4      54.094
2014    9       28    11  38    5.14   573.6    3.4      54.096
2014    9       28    11  44    5.14   573.5    3.4      54.099
2014    9       28    11  49    5.14   573.4    3.4      54.101
2014    9       28    11  54    5.14   573.2    3.4      54.103
2014    9       28    12   0    5.14   573.1    3.4      54.105
2014    9       28    12   5    5.14   573.0    3.4      54.106
2014    9       28    12  10    5.14   572.9    3.4      54.107
2014    9       28    12  16    5.14   572.8    3.4      54.108
2014    9       28    12  21    5.14   572.7    3.4      54.108
2014    9       28    12  27    5.14   572.6    3.4      54.108
2014    9       28    12  32    5.14   572.5    3.4      54.108
2014    9       28    12  37    5.14   572.4    3.4      54.107
2014    9       28    12  43    5.14   572.3    3.4      54.106
2014    9       28    12  48    5.14   572.2    3.4      54.105
2014    9       28    12  53    5.14   572.1    3.4      54.103
2014    9       28    12  59    5.14   571.9    3.5      54.101
2014    9       28    13   4    5.14   571.8    3.5      54.099
2014    9       28    13   9    5.14   571.7    3.5      54.097
2014    9       28    13  15    5.13   571.6    3.5      54.095
2014    9       28    13  20    5.13   571.5    3.5      54.093
2014    9       28    13  25    5.13   571.4    3.5      54.090
2014    9       28    13  31    5.13   571.3    3.5      54.087
2014    9       28    13  36    5.13   571.2    3.5      54.084
2014    9       28    13  41    5.13   571.1    3.5      54.079
2014    9       28    13  47    5.13   571.0    3.5      54.074
2014    9       28    13  52    5.13   570.9    3.5      54.069
2014    9       28    13  57    5.13   570.8    3.5      54.063
2014    9       28    14   3    5.13   570.6    3.5      54.056
2014    9       28    14   8    5.13   570.5    3.5      54.049
2014    9       28    14  13    5.13   570.4    3.5      54.041
2014    9       28    14  19    5.13   570.3    3.5      54.033
2014    9       28    14  24    5.13   570.2    3.5      54.024
2014    9       28    14  30    5.13   570.1    3.5      54.015
2014    9       28    14  35    5.13   570.0    3.5      54.005
2014    9       28    14  40    5.13   569.9    3.5      53.995
2014    9       28    14  46    5.12   569.8    3.5      53.984
2014    9       28    14  51    5.12   569.7    3.5      53.973
2014    9       28    14  56    5.12   569.5    3.5      53.961
2014    9       28    15   2    5.12   569.4    3.5      53.949
2014    9       28    15   7    5.12   569.3    3.5      53.937
2014    9       28    15  12    5.12   569.2    3.5      53.924
2014    9       28    15  18    5.12   569.1    3.5      53.911
2014    9       28    15  23    5.12   569.0    3.5      53.897
2014    9       28    15  28    5.12   568.9    3.5      53.884
2014    9       28    15  34    5.12   568.8    3.5      53.870
2014    9       28    15  39    5.12   568.6    3.5      53.855
2014    9       28    15  44    5.12   568.5    3.5      53.841
2014    9       28    15  50    5.12   568.4    3.5      53.827
2014    9       28    15  55    5.12   568.3    3.5      53.812
2014    9       28    16   0    5.12   568.2    3.5      53.797
2014    9       28    16   6    5.11   568.1    3.5      53.782
2014    9       28    16  11    5.11   567.9    3.5      53.768
2014    9       28    16  17    5.11   567.8    3.5      53.753
2014    9       28    16  22    5.11   567.7    3.5      53.738
2014    9       28    16  27    5.11   567.6    3.5      53.724
2014    9       28    16  33    5.11   567.5    3.5      53.709
2014    9       28    16  38    5.11   567.4    3.5      53.695
2014    9       28    16  43    5.11   567.2    3.5      53.681
2014    9       28    16  49    5.11   567.1    3.5      53.666
2014    9       28    16  54    5.11   567.0    3.5      53.652
2014    9       28    16  59    5.11   566.9    3.5      53.639
2014    9       28    17   5    5.11   566.8    3.5      53.625
2014    9       28    17  10    5.11   566.6    3.5      53.611
2014    9       28    17  15    5.11   566.5    3.5      53.598
2014    9       28    17  21    5.11   566.4    3.5      53.585
2014    9       28    17  26    5.10   566.3    3.5      53.572
2014    9       28    17  31    5.10   566.2    3.5      53.560
2014    9       28    17  37    5.10   566.0    3.5      53.547
2014    9       28    17  42    5.10   565.9    3.5      53.536
2014    9       28    17  47    5.10   565.8    3.5      53.524
2014    9       28    17  53    5.10   565.7    3.5      53.513
2014    9       28    17  58    5.10   565.5    3.5      53.503
2014    9       28    18   4    5.10   565.4    3.5      53.493
2014    9       28    18   9    5.10   565.3    3.5      53.484
2014    9       28    18  14    5.10   565.2    3.5      53.476
2014    9       28    18  20    5.10   565.0    3.5      53.468
2014    9       28    18  25    5.10   564.9    3.5      53.461
2014    9       28    18  30    5.10   564.8    3.5      53.455
2014    9       28    18  36    5.10   564.7    3.5      53.450
2014    9       28    18  41    5.10   564.5    3.5      53.445
2014    9       28    18  46    5.10   564.4    3.5      53.441
2014    9       28    18  52    5.09   564.3    3.5      53.438
2014    9       28    18  57    5.09   564.2    3.5      53.435
2014    9       28    19   2    5.09   564.1    3.5      53.433
2014    9       28    19   8    5.09   563.9    3.5      53.430
2014    9       28    19  13    5.09   563.8    3.5      53.428
2014    9       28    19  18    5.09   563.7    3.5      53.427
2014    9       28    19  24    5.09   563.6    3.5      53.426
2014    9       28    19  29    5.09   563.5    3.5      53.425
2014    9       28    19  34    5.09   563.3    3.5      53.424
2014    9       28    19  40    5.09   563.2    3.5      53.423
2014    9       28    19  45    5.09   563.1    3.5      53.422
2014    9       28    19  51    5.09   563.0    3.5      53.422
2014    9       28    19  56    5.09   562.9    3.5      53.422
2014    9       28    20   1    5.09   562.7    3.5      53.422
2014    9       28    20   7    5.09   562.6    3.5      53.422
2014    9       28    20  12    5.09   562.5    3.5      53.422
2014    9       28    20  17    5.09   562.4    3.5      53.422
2014    9       28    20  23    5.08   562.3    3.5      53.423
2014    9       28    20  28    5.08   562.2    3.5      53.424
2014    9       28    20  33    5.08   562.0    3.5      53.425
2014    9       28    20  39    5.08   561.9    3.5      53.426
2014    9       28    20  44    5.08   561.8    3.5      53.426
2014    9       28    20  49    5.08   561.7    3.5      53.426
2014    9       28    20  55    5.08   561.5    3.5      53.426
2014    9       28    21   0    5.08   561.4    3.5      53.426
2014    9       28    21   5    5.08   561.3    3.5      53.425
2014    9       28    21  11    5.08   561.2    3.5      53.424
2014    9       28    21  16    5.08   561.1    3.5      53.423
2014    9       28    21  21    5.08   560.9    3.5      53.421
2014    9       28    21  27    5.08   560.8    3.5      53.419
2014    9       28    21  32    5.08   560.7    3.5      53.417
2014    9       28    21  38    5.08   560.6    3.5      53.415
2014    9       28    21  43    5.07   560.5    3.5      53.412
2014    9       28    21  48    5.07   560.3    3.5      53.410
2014    9       28    21  54    5.07   560.2    3.5      53.407
2014    9       28    21  59    5.07   560.1    3.5      53.403
2014    9       28    22   4    5.07   560.0    3.5      53.399
2014    9       28    22  10    5.07   559.9    3.5      53.394
2014    9       28    22  15    5.07   559.8    3.5      53.388
2014    9       28    22  20    5.07   559.6    3.5      53.380
2014    9       28    22  26    5.07   559.5    3.5      53.373
2014    9       28    22  31    5.07   559.4    3.5      53.364
2014    9       28    22  36    5.07   559.3    3.5      53.355
2014    9       28    22  42    5.07   559.2    3.5      53.346
2014    9       28    22  47    5.07   559.1    3.5      53.335
2014    9       28    22  52    5.07   559.0    3.5      53.325
2014    9       28    22  58    5.06   558.8    3.5      53.313
2014    9       28    23   3    5.06   558.7    3.5      53.301
2014    9       28    23   8    5.06   558.6    3.5      53.289
2014    9       28    23  14    5.06   558.5    3.5      53.276
2014    9       28    23  19    5.06   558.4    3.5      53.263
2014    9       28    23  24    5.06   558.3    3.5      53.249
2014    9       28    23  30    5.06   558.2    3.5      53.236
2014    9       28    23  35    5.06   558.0    3.5      53.222
2014    9       28    23  41    5.06   557.9    3.5      53.208
2014    9       28    23  46    5.06   557.8    3.5      53.193
2014    9       28    23  51    5.06   557.7    3.5      53.178
2014    9       28    23  57    5.05   557.6    3.5      53.163
2014    9       29     0   2    5.05   557.5    3.5      53.147
2014    9       29     0   7    5.05   557.3    3.5      53.132
2014    9       29     0  13    5.05   557.2    3.5      53.116
2014    9       29     0  18    5.05   557.1    3.5      53.099
2014    9       29     0  23    5.05   557.0    3.5      53.083
2014    9       29     0  29    5.05   556.9    3.5      53.066
2014    9       29     0  34    5.05   556.8    3.5      53.049
2014    9       29     0  39    5.05   556.6    3.5      53.032
2014    9       29     0  45    5.05   556.5    3.5      53.015
2014    9       29     0  50    5.05   556.4    3.5      52.997
2014    9       29     0  55    5.04   556.3    3.5      52.979
2014    9       29     1   1    5.04   556.1    3.5      52.962
2014    9       29     1   6    5.04   556.0    3.5      52.944
2014    9       29     1  11    5.04   555.9    3.5      52.927
2014    9       29     1  17    5.04   555.8    3.5      52.909
2014    9       29     1  22    5.04   555.6    3.5      52.892
2014    9       29     1  28    5.04   555.5    3.5      52.875
2014    9       29     1  33    5.04   555.4    3.5      52.858
2014    9       29     1  38    5.04   555.3    3.5      52.842
2014    9       29     1  44    5.04   555.1    3.5      52.826
2014    9       29     1  49    5.04   555.0    3.5      52.811
2014    9       29     1  54    5.03   554.9    3.5      52.796
2014    9       29     2   0    5.03   554.8    3.6      52.781
2014    9       29     2   5    5.03   554.6    3.6      52.767
2014    9       29     2  10    5.03   554.5    3.6      52.753
2014    9       29     2  16    5.03   554.4    3.6      52.739
2014    9       29     2  21    5.03   554.3    3.6      52.725
2014    9       29     2  26    5.03   554.1    3.6      52.712
2014    9       29     2  32    5.03   554.0    3.6      52.699
2014    9       29     2  37    5.03   553.9    3.6      52.687
2014    9       29     2  42    5.03   553.8    3.6      52.675
2014    9       29     2  48    5.03   553.6    3.6      52.663
2014    9       29     2  53    5.03   553.5    3.6      52.652
2014    9       29     2  59    5.02   553.4    3.6      52.641
2014    9       29     3   4    5.02   553.3    3.6      52.631
2014    9       29     3   9    5.02   553.1    3.6      52.621
2014    9       29     3  15    5.02   553.0    3.6      52.611
2014    9       29     3  20    5.02   552.9    3.6      52.602
2014    9       29     3  25    5.02   552.7    3.6      52.593
2014    9       29     3  31    5.02   552.6    3.6      52.585
2014    9       29     3  36    5.02   552.5    3.6      52.577
2014    9       29     3  41    5.02   552.3    3.6      52.570
2014    9       29     3  47    5.02   552.2    3.6      52.563
2014    9       29     3  52    5.02   552.1    3.6      52.557
2014    9       29     3  57    5.02   551.9    3.6      52.552
2014    9       29     4   3    5.01   551.8    3.6      52.547
2014    9       29     4   8    5.01   551.7    3.6      52.543
2014    9       29     4  13    5.01   551.5    3.6      52.540
2014    9       29     4  19    5.01   551.4    3.6      52.537
2014    9       29     4  24    5.01   551.3    3.6      52.534
2014    9       29     4  29    5.01   551.1    3.6      52.532
2014    9       29     4  35    5.01   551.0    3.6      52.530
2014    9       29     4  40    5.01   550.8    3.6      52.529
2014    9       29     4  45    5.01   550.7    3.6      52.529
2014    9       29     4  51    5.01   550.6    3.6      52.529
2014    9       29     4  56    5.01   550.5    3.6      52.529
2014    9       29     5   2    5.01   550.3    3.6      52.530
2014    9       29     5   7    5.01   550.2    3.6      52.531
2014    9       29     5  12    5.01   550.1    3.6      52.531
2014    9       29     5  18    5.00   550.0    3.6      52.531
2014    9       29     5  23    5.00   549.8    3.6      52.531
2014    9       29     5  28    5.00   549.7    3.6      52.530
2014    9       29     5  34    5.00   549.6    3.6      52.529
2014    9       29     5  39    5.00   549.5    3.6      52.528
2014    9       29     5  44    5.00   549.3    3.6      52.526
2014    9       29     5  50    5.00   549.2    3.6      52.524
2014    9       29     5  55    5.00   549.1    3.6      52.522
2014    9       29     6   0    5.00   549.0    3.6      52.519
2014    9       29     6   6    5.00   548.8    3.6      52.515
2014    9       29     6  11    5.00   548.7    3.6      52.512
2014    9       29     6  16    5.00   548.6    3.6      52.508
2014    9       29     6  22    5.00   548.5    3.6      52.504
2014    9       29     6  27    5.00   548.3    3.6      52.500
2014    9       29     6  32    4.99   548.2    3.6      52.495
2014    9       29     6  38    4.99   548.1    3.6      52.491
2014    9       29     6  43    4.99   548.0    3.6      52.487
2014    9       29     6  49    4.99   547.9    3.6      52.482
2014    9       29     6  54    4.99   547.7    3.6      52.477
2014    9       29     6  59    4.99   547.6    3.6      52.471
2014    9       29     7   5    4.99   547.5    3.6      52.465
2014    9       29     7  10    4.99   547.4    3.6      52.458
2014    9       29     7  15    4.99   547.3    3.6      52.451
2014    9       29     7  21    4.99   547.1    3.6      52.443
2014    9       29     7  26    4.99   547.0    3.6      52.434
2014    9       29     7  31    4.99   546.9    3.6      52.425
2014    9       29     7  37    4.98   546.8    3.6      52.416
2014    9       29     7  42    4.98   546.7    3.6      52.406
2014    9       29     7  47    4.98   546.5    3.6      52.395
2014    9       29     7  53    4.98   546.4    3.6      52.383
2014    9       29     7  58    4.98   546.3    3.6      52.371
2014    9       29     8   3    4.98   546.2    3.6      52.359
2014    9       29     8   9    4.98   546.1    3.6      52.345
2014    9       29     8  14    4.98   546.0    3.6      52.332
2014    9       29     8  19    4.98   545.8    3.6      52.318
2014    9       29     8  25    4.98   545.7    3.6      52.303
2014    9       29     8  30    4.97   545.6    3.6      52.288
2014    9       29     8  35    4.97   545.5    3.6      52.272
2014    9       29     8  41    4.97   545.4    3.6      52.256
2014    9       29     8  46    4.97   545.3    3.6      52.240
2014    9       29     8  52    4.97   545.1    3.6      52.223
2014    9       29     8  57    4.97   545.0    3.6      52.206
2014    9       29     9   2    4.97   544.9    3.6      52.189
2014    9       29     9   8    4.97   544.8    3.6      52.172
2014    9       29     9  13    4.97   544.7    3.6      52.154
2014    9       29     9  18    4.96   544.5    3.6      52.136
2014    9       29     9  24    4.96   544.4    3.6      52.117
2014    9       29     9  29    4.96   544.3    3.6      52.099
2014    9       29     9  34    4.96   544.2    3.6      52.080
2014    9       29     9  40    4.96   544.0    3.6      52.062
2014    9       29     9  45    4.96   543.9    3.6      52.043
2014    9       29     9  50    4.96   543.8    3.6      52.024
2014    9       29     9  56    4.96   543.7    3.6      52.005
2014    9       29    10   1    4.96   543.5    3.6      51.986
2014    9       29    10   6    4.96   543.4    3.6      51.967
2014    9       29    10  12    4.95   543.3    3.6      51.947
2014    9       29    10  17    4.95   543.2    3.6      51.928
2014    9       29    10  23    4.95   543.0    3.6      51.909
2014    9       29    10  28    4.95   542.9    3.6      51.890
2014    9       29    10  33    4.95   542.8    3.6      51.872
2014    9       29    10  39    4.95   542.6    3.6      51.853
2014    9       29    10  44    4.95   542.5    3.6      51.835
2014    9       29    10  49    4.95   542.4    3.6      51.817
2014    9       29    10  55    4.95   542.2    3.6      51.800
2014    9       29    11   0    4.94   542.1    3.6      51.784
2014    9       29    11   5    4.94   542.0    3.6      51.768
2014    9       29    11  11    4.94   541.8    3.6      51.752
2014    9       29    11  16    4.94   541.7    3.6      51.738
2014    9       29    11  21    4.94   541.6    3.6      51.724
2014    9       29    11  27    4.94   541.4    3.6      51.710
2014    9       29    11  32    4.94   541.3    3.6      51.697
2014    9       29    11  37    4.94   541.2    3.6      51.684
2014    9       29    11  43    4.94   541.0    3.6      51.672
2014    9       29    11  48    4.94   540.9    3.6      51.660
2014    9       29    11  53    4.94   540.8    3.6      51.649
2014    9       29    11  59    4.93   540.6    3.6      51.638
2014    9       29    12   4    4.93   540.5    3.6      51.628
2014    9       29    12   9    4.93   540.4    3.6      51.618
2014    9       29    12  15    4.93   540.2    3.6      51.609
2014    9       29    12  20    4.93   540.1    3.6      51.600
2014    9       29    12  26    4.93   540.0    3.6      51.591
2014    9       29    12  31    4.93   539.8    3.6      51.583
2014    9       29    12  36    4.93   539.7    3.6      51.575
2014    9       29    12  42    4.93   539.6    3.6      51.567
2014    9       29    12  47    4.93   539.4    3.6      51.560
2014    9       29    12  52    4.93   539.3    3.6      51.553
2014    9       29    12  58    4.93   539.1    3.6      51.546
2014    9       29    13   3    4.93   539.0    3.6      51.540
2014    9       29    13   8    4.92   538.9    3.6      51.534
2014    9       29    13  14    4.92   538.7    3.6      51.529
2014    9       29    13  19    4.92   538.6    3.7      51.525
2014    9       29    13  24    4.92   538.5    3.7      51.521
2014    9       29    13  30    4.92   538.3    3.7      51.518
2014    9       29    13  35    4.92   538.2    3.7      51.515
2014    9       29    13  40    4.92   538.1    3.7      51.513
2014    9       29    13  46    4.92   537.9    3.7      51.511
2014    9       29    13  51    4.92   537.8    3.7      51.508
2014    9       29    13  56    4.92   537.7    3.7      51.506
2014    9       29    14   2    4.92   537.5    3.7      51.503
2014    9       29    14   7    4.92   537.4    3.7      51.500
2014    9       29    14  13    4.92   537.3    3.7      51.497
2014    9       29    14  18    4.92   537.2    3.7      51.494
2014    9       29    14  23    4.91   537.0    3.7      51.491
2014    9       29    14  29    4.91   536.9    3.7      51.487
2014    9       29    14  34    4.91   536.8    3.7      51.484
2014    9       29    14  39    4.91   536.7    3.7      51.480
2014    9       29    14  45    4.91   536.5    3.7      51.475
2014    9       29    14  50    4.91   536.4    3.7      51.471
2014    9       29    14  55    4.91   536.3    3.7      51.466
2014    9       29    15   1    4.91   536.2    3.7      51.461
2014    9       29    15   6    4.91   536.0    3.7      51.455
2014    9       29    15  11    4.91   535.9    3.7      51.449
2014    9       29    15  17    4.91   535.8    3.7      51.443
2014    9       29    15  22    4.90   535.7    3.7      51.436
2014    9       29    15  27    4.90   535.5    3.7      51.429
2014    9       29    15  33    4.90   535.4    3.7      51.422
2014    9       29    15  38    4.90   535.3    3.7      51.414
2014    9       29    15  43    4.90   535.1    3.7      51.406
2014    9       29    15  49    4.90   535.0    3.7      51.398
2014    9       29    15  54    4.90   534.9    3.7      51.389
2014    9       29    16   0    4.90   534.8    3.7      51.380
2014    9       29    16   5    4.90   534.6    3.7      51.371
2014    9       29    16  10    4.90   534.5    3.7      51.362
2014    9       29    16  16    4.90   534.4    3.7      51.352
2014    9       29    16  21    4.89   534.3    3.7      51.343
2014    9       29    16  26    4.89   534.1    3.7      51.333
2014    9       29    16  32    4.89   534.0    3.7      51.323
2014    9       29    16  37    4.89   533.9    3.7      51.314
2014    9       29    16  42    4.89   533.7    3.7      51.304
2014    9       29    16  48    4.89   533.6    3.7      51.295
2014    9       29    16  53    4.89   533.5    3.7      51.286
2014    9       29    16  58    4.89   533.4    3.7      51.276
2014    9       29    17   4    4.89   533.3    3.7      51.267
2014    9       29    17   9    4.89   533.1    3.7      51.256
2014    9       29    17  14    4.89   533.0    3.7      51.245
2014    9       29    17  20    4.88   532.9    3.7      51.234
2014    9       29    17  25    4.88   532.8    3.7      51.221
2014    9       29    17  30    4.88   532.6    3.7      51.208
2014    9       29    17  36    4.88   532.5    3.7      51.195
2014    9       29    17  41    4.88   532.4    3.7      51.181
2014    9       29    17  47    4.88   532.3    3.7      51.166
2014    9       29    17  52    4.88   532.2    3.7      51.151
2014    9       29    17  57    4.88   532.0    3.7      51.136
2014    9       29    18   3    4.88   531.9    3.7      51.120
2014    9       29    18   8    4.88   531.8    3.7      51.104
2014    9       29    18  13    4.87   531.7    3.7      51.088
2014    9       29    18  19    4.87   531.5    3.7      51.072
2014    9       29    18  24    4.87   531.4    3.7      51.055
2014    9       29    18  29    4.87   531.3    3.7      51.038
2014    9       29    18  35    4.87   531.2    3.7      51.021
2014    9       29    18  40    4.87   531.0    3.7      51.004
2014    9       29    18  45    4.87   530.9    3.7      50.987
2014    9       29    18  51    4.87   530.8    3.7      50.970
2014    9       29    18  56    4.87   530.7    3.7      50.952
2014    9       29    19   1    4.87   530.5    3.7      50.935
2014    9       29    19   7    4.87   530.4    3.7      50.917
2014    9       29    19  12    4.86   530.3    3.7      50.899
2014    9       29    19  17    4.86   530.2    3.7      50.881
2014    9       29    19  23    4.86   530.0    3.7      50.863
2014    9       29    19  28    4.86   529.9    3.7      50.845
2014    9       29    19  34    4.86   529.8    3.7      50.827
2014    9       29    19  39    4.86   529.7    3.7      50.809
2014    9       29    19  44    4.86   529.5    3.7      50.791
2014    9       29    19  50    4.86   529.4    3.7      50.773
2014    9       29    19  55    4.86   529.3    3.7      50.754
2014    9       29    20   0    4.86   529.1    3.7      50.736
2014    9       29    20   6    4.85   529.0    3.7      50.717
2014    9       29    20  11    4.85   528.9    3.7      50.699
2014    9       29    20  16    4.85   528.7    3.7      50.680
2014    9       29    20  22    4.85   528.6    3.7      50.662
2014    9       29    20  27    4.85   528.5    3.7      50.644
2014    9       29    20  32    4.85   528.3    3.7      50.626
2014    9       29    20  38    4.85   528.2    3.7      50.608
2014    9       29    20  43    4.85   528.1    3.7      50.590
2014    9       29    20  48    4.85   527.9    3.7      50.573
2014    9       29    20  54    4.85   527.8    3.7      50.555
2014    9       29    20  59    4.85   527.7    3.7      50.538
2014    9       29    21   4    4.84   527.5    3.7      50.522
2014    9       29    21  10    4.84   527.4    3.7      50.505
2014    9       29    21  15    4.84   527.3    3.7      50.489
2014    9       29    21  20    4.84   527.1    3.7      50.473
2014    9       29    21  26    4.84   527.0    3.7      50.458
2014    9       29    21  31    4.84   526.9    3.7      50.442
2014    9       29    21  37    4.84   526.7    3.7      50.427
2014    9       29    21  42    4.84   526.6    3.7      50.413
2014    9       29    21  47    4.84   526.5    3.7      50.398
2014    9       29    21  53    4.84   526.3    3.7      50.384
2014    9       29    21  58    4.84   526.2    3.7      50.371
2014    9       29    22   3    4.84   526.1    3.7      50.358
2014    9       29    22   9    4.83   525.9    3.7      50.345
2014    9       29    22  14    4.83   525.8    3.7      50.332
2014    9       29    22  19    4.83   525.6    3.7      50.320
2014    9       29    22  25    4.83   525.5    3.7      50.307
2014    9       29    22  30    4.83   525.4    3.7      50.295
2014    9       29    22  35    4.83   525.2    3.7      50.283
2014    9       29    22  41    4.83   525.1    3.7      50.271
2014    9       29    22  46    4.83   525.0    3.7      50.260
2014    9       29    22  51    4.83   524.8    3.7      50.248
2014    9       29    22  57    4.83   524.7    3.7      50.237
2014    9       29    23   2    4.83   524.5    3.7      50.226
2014    9       29    23   7    4.82   524.4    3.7      50.215
2014    9       29    23  13    4.82   524.3    3.7      50.205
2014    9       29    23  18    4.82   524.1    3.7      50.195
2014    9       29    23  24    4.82   524.0    3.7      50.186
2014    9       29    23  29    4.82   523.8    3.7      50.177
2014    9       29    23  34    4.82   523.7    3.7      50.169
2014    9       29    23  40    4.82   523.6    3.7      50.161
2014    9       29    23  45    4.82   523.4    3.8      50.154
2014    9       29    23  50    4.82   523.3    3.8      50.147
2014    9       29    23  56    4.82   523.2    3.8      50.140
2014    9       30     0   1    4.82   523.1    3.8      50.135
2014    9       30     0   6    4.82   522.9    3.8      50.130
2014    9       30     0  12    4.82   522.8    3.8      50.125
2014    9       30     0  17    4.82   522.7    3.8      50.120
2014    9       30     0  22    4.82   522.5    3.8      50.116
2014    9       30     0  28    4.81   522.4    3.8      50.112
2014    9       30     0  33    4.81   522.3    3.8      50.108
2014    9       30     0  38    4.81   522.2    3.8      50.103
2014    9       30     0  44    4.81   522.0    3.8      50.098
2014    9       30     0  49    4.81   521.9    3.8      50.092
2014    9       30     0  54    4.81   521.8    3.8      50.086
2014    9       30     1   0    4.81   521.7    3.8      50.079
2014    9       30     1   5    4.81   521.5    3.8      50.072
2014    9       30     1  11    4.81   521.4    3.8      50.064
2014    9       30     1  16    4.81   521.3    3.8      50.056
2014    9       30     1  21    4.81   521.2    3.8      50.047
2014    9       30     1  27    4.81   521.0    3.8      50.038
2014    9       30     1  32    4.80   520.9    3.8      50.029
2014    9       30     1  37    4.80   520.8    3.8      50.018
2014    9       30     1  43    4.80   520.6    3.8      50.008
2014    9       30     1  48    4.80   520.5    3.8      49.997
2014    9       30     1  53    4.80   520.4    3.8      49.986
2014    9       30     1  59    4.80   520.3    3.8      49.974
2014    9       30     2   4    4.80   520.1    3.8      49.962
2014    9       30     2   9    4.80   520.0    3.8      49.950
2014    9       30     2  15    4.80   519.9    3.8      49.937
2014    9       30     2  20    4.80   519.7    3.8      49.924
2014    9       30     2  25    4.80   519.6    3.8      49.911
2014    9       30     2  31    4.79   519.5    3.8      49.898
2014    9       30     2  36    4.79   519.4    3.8      49.884
2014    9       30     2  41    4.79   519.2    3.8      49.870
2014    9       30     2  47    4.79   519.1    3.8      49.855
2014    9       30     2  52    4.79   519.0    3.8      49.840
2014    9       30     2  58    4.79   518.8    3.8      49.825
2014    9       30     3   3    4.79   518.7    3.8      49.810
2014    9       30     3   8    4.79   518.6    3.8      49.794
2014    9       30     3  14    4.79   518.5    3.8      49.778
2014    9       30     3  19    4.79   518.3    3.8      49.762
2014    9       30     3  24    4.79   518.2    3.8      49.745
2014    9       30     3  30    4.78   518.1    3.8      49.729
2014    9       30     3  35    4.78   517.9    3.8      49.712
2014    9       30     3  40    4.78   517.8    3.8      49.694
2014    9       30     3  46    4.78   517.7    3.8      49.677
2014    9       30     3  51    4.78   517.5    3.8      49.659
2014    9       30     3  56    4.78   517.4    3.8      49.641
2014    9       30     4   2    4.78   517.3    3.8      49.623
2014    9       30     4   7    4.78   517.1    3.8      49.604
2014    9       30     4  12    4.78   517.0    3.8      49.586
2014    9       30     4  18    4.78   516.9    3.8      49.567
2014    9       30     4  23    4.78   516.8    3.8      49.547
2014    9       30     4  28    4.78   516.6    3.8      49.528
2014    9       30     4  34    4.77   516.5    3.8      49.508
2014    9       30     4  39    4.77   516.4    3.8      49.488
2014    9       30     4  45    4.77   516.2    3.8      49.468
2014    9       30     4  50    4.77   516.1    3.8      49.448
2014    9       30     4  55    4.77   516.0    3.8      49.428
2014    9       30     5   1    4.77   515.8    3.8      49.407
2014    9       30     5   6    4.77   515.7    3.8      49.387
2014    9       30     5  11    4.77   515.6    3.8      49.366
2014    9       30     5  17    4.77   515.4    3.8      49.346
2014    9       30     5  22    4.77   515.3    3.8      49.325
2014    9       30     5  27    4.77   515.2    3.8      49.304
2014    9       30     5  33    4.77   515.0    3.8      49.284
2014    9       30     5  38    4.76   514.9    3.8      49.263
2014    9       30     5  43    4.76   514.7    3.8      49.243
2014    9       30     5  49    4.76   514.6    3.8      49.222
2014    9       30     5  54    4.76   514.5    3.8      49.202
2014    9       30     5  59    4.76   514.3    3.8      49.182
2014    9       30     6   5    4.76   514.2    3.8      49.162
2014    9       30     6  10    4.76   514.1    3.8      49.143
2014    9       30     6  15    4.76   513.9    3.8      49.123
2014    9       30     6  21    4.76   513.8    3.8      49.103
2014    9       30     6  26    4.76   513.7    3.8      49.084
2014    9       30     6  31    4.76   513.5    3.8      49.065
2014    9       30     6  37    4.76   513.4    3.8      49.046
2014    9       30     6  42    4.76   513.2    3.8      49.027
2014    9       30     6  48    4.76   513.1    3.8      49.008
2014    9       30     6  53    4.75   513.0    3.8      48.990
2014    9       30     6  58    4.75   512.8    3.8      48.972
2014    9       30     7   4    4.75   512.7    3.8      48.955
2014    9       30     7   9    4.75   512.6    3.8      48.937
2014    9       30     7  14    4.75   512.4    3.8      48.920
2014    9       30     7  20    4.75   512.3    3.8      48.903
2014    9       30     7  25    4.75   512.2    3.8      48.886
2014    9       30     7  30    4.75   512.0    3.8      48.869
2014    9       30     7  36    4.75   511.9    3.8      48.852
2014    9       30     7  41    4.75   511.7    3.8      48.836
2014    9       30     7  46    4.75   511.6    3.8      48.819
2014    9       30     7  52    4.75   511.5    3.8      48.803
2014    9       30     7  57    4.75   511.3    3.8      48.787
2014    9       30     8   2    4.74   511.2    3.8      48.770
2014    9       30     8   8    4.74   511.0    3.8      48.755
2014    9       30     8  13    4.74   510.9    3.8      48.739
2014    9       30     8  19    4.74   510.8    3.8      48.723
2014    9       30     8  24    4.74   510.6    3.8      48.707
2014    9       30     8  29    4.74   510.5    3.8      48.692
2014    9       30     8  35    4.74   510.3    3.8      48.677
2014    9       30     8  40    4.74   510.2    3.8      48.662
2014    9       30     8  45    4.74   510.0    3.8      48.647
2014    9       30     8  51    4.74   509.9    3.9      48.632
2014    9       30     8  56    4.74   509.8    3.9      48.618
2014    9       30     9   1    4.74   509.6    3.9      48.604
2014    9       30     9   7    4.74   509.5    3.9      48.590
2014    9       30     9  12    4.74   509.3    3.9      48.577
2014    9       30     9  17    4.73   509.2    3.9      48.564
2014    9       30     9  23    4.73   509.1    3.9      48.551
2014    9       30     9  28    4.73   508.9    3.9      48.538
2014    9       30     9  33    4.73   508.8    3.9      48.526
2014    9       30     9  39    4.73   508.6    3.9      48.514
2014    9       30     9  44    4.73   508.5    3.9      48.502
2014    9       30     9  49    4.73   508.4    3.9      48.491
2014    9       30     9  55    4.73   508.2    3.9      48.479
2014    9       30    10   0    4.73   508.1    3.9      48.468
2014    9       30    10   5    4.73   507.9    3.9      48.457
2014    9       30    10  11    4.73   507.8    3.9      48.446
2014    9       30    10  16    4.73   507.7    3.9      48.435
2014    9       30    10  22    4.73   507.5    3.9      48.423
2014    9       30    10  27    4.73   507.4    3.9      48.413
2014    9       30    10  32    4.73   507.3    3.9      48.401
2014    9       30    10  38    4.72   507.1    3.9      48.390
2014    9       30    10  43    4.72   507.0    3.9      48.379
2014    9       30    10  48    4.72   506.9    3.9      48.368
2014    9       30    10  54    4.72   506.7    3.9      48.356
2014    9       30    10  59    4.72   506.6    3.9      48.345
2014    9       30    11   4    4.72   506.5    3.9      48.333
2014    9       30    11  10    4.72   506.3    3.9      48.321
2014    9       30    11  15    4.72   506.2    3.9      48.309
2014    9       30    11  20    4.72   506.0    3.9      48.297
2014    9       30    11  26    4.72   505.9    3.9      48.285
2014    9       30    11  31    4.72   505.8    3.9      48.272
2014    9       30    11  36    4.72   505.6    3.9      48.259
2014    9       30    11  42    4.72   505.5    3.9      48.246
2014    9       30    11  47    4.72   505.4    3.9      48.233
2014    9       30    11  52    4.72   505.2    3.9      48.219
2014    9       30    11  58    4.71   505.1    3.9      48.206
2014    9       30    12   3    4.71   504.9    3.9      48.192
2014    9       30    12   9    4.71   504.8    3.9      48.178
2014    9       30    12  14    4.71   504.7    3.9      48.163
2014    9       30    12  19    4.71   504.5    3.9      48.148
2014    9       30    12  25    4.71   504.4    3.9      48.134
2014    9       30    12  30    4.71   504.3    3.9      48.118
2014    9       30    12  35    4.71   504.1    3.9      48.103
2014    9       30    12  41    4.71   504.0    3.9      48.087
2014    9       30    12  46    4.71   503.8    3.9      48.071
2014    9       30    12  51    4.71   503.7    3.9      48.055
2014    9       30    12  57    4.71   503.6    3.9      48.039
2014    9       30    13   2    4.71   503.4    3.9      48.022
2014    9       30    13   7    4.71   503.3    3.9      48.005
2014    9       30    13  13    4.71   503.2    3.9      47.987
2014    9       30    13  18    4.71   503.0    3.9      47.969
2014    9       30    13  23    4.71   502.9    3.9      47.951
2014    9       30    13  29    4.70   502.7    3.9      47.932
2014    9       30    13  34    4.70   502.6    3.9      47.913
2014    9       30    13  39    4.70   502.5    3.9      47.894
2014    9       30    13  45    4.70   502.3    3.9      47.874
2014    9       30    13  50    4.70   502.2    3.9      47.854
2014    9       30    13  56    4.70   502.0    3.9      47.833
2014    9       30    14   1    4.70   501.9    3.9      47.813
2014    9       30    14   6    4.70   501.8    3.9      47.792
2014    9       30    14  12    4.70   501.6    3.9      47.770
2014    9       30    14  17    4.70   501.5    3.9      47.749
2014    9       30    14  22    4.70   501.3    3.9      47.727
2014    9       30    14  28    4.70   501.2    3.9      47.705
2014    9       30    14  33    4.70   501.1    3.9      47.683
2014    9       30    14  38    4.70   500.9    3.9      47.660
2014    9       30    14  44    4.70   500.8    3.9      47.638
2014    9       30    14  49    4.70   500.6    3.9      47.615
2014    9       30    14  54    4.69   500.5    3.9      47.593
2014    9       30    15   0    4.69   500.4    3.9      47.570
2014    9       30    15   5    4.69   500.2    3.9      47.547
2014    9       30    15  10    4.69   500.1    3.9      47.524
2014    9       30    15  16    4.69   499.9    3.9      47.501
2014    9       30    15  21    4.69   499.8    3.9      47.478
2014    9       30    15  26    4.69   499.6    3.9      47.456
2014    9       30    15  32    4.69   499.5    3.9      47.433
2014    9       30    15  37    4.69   499.4    3.9      47.410
2014    9       30    15  43    4.69   499.2    3.9      47.388
2014    9       30    15  48    4.69   499.1    3.9      47.366
2014    9       30    15  53    4.69   498.9    4.0      47.344
2014    9       30    15  59    4.69   498.8    4.0      47.322
2014    9       30    16   4    4.69   498.6    4.0      47.300
2014    9       30    16   9    4.69   498.5    4.0      47.279
2014    9       30    16  15    4.69   498.4    4.0      47.258
2014    9       30    16  20    4.69   498.2    4.0      47.237
2014    9       30    16  25    4.68   498.1    4.0      47.217
2014    9       30    16  31    4.68   497.9    4.0      47.196
2014    9       30    16  36    4.68   497.8    4.0      47.176
2014    9       30    16  41    4.68   497.6    4.0      47.156
2014    9       30    16  47    4.68   497.5    4.0      47.137
2014    9       30    16  52    4.68   497.4    4.0      47.118
2014    9       30    16  57    4.68   497.2    4.0      47.099
2014    9       30    17   3    4.68   497.1    4.0      47.080
2014    9       30    17   8    4.68   496.9    4.0      47.062
2014    9       30    17  13    4.68   496.8    4.0      47.044
2014    9       30    17  19    4.68   496.7    4.0      47.026
2014    9       30    17  24    4.68   496.5    4.0      47.008
2014    9       30    17  30    4.68   496.4    4.0      46.991
2014    9       30    17  35    4.68   496.2    4.0      46.974
2014    9       30    17  40    4.68   496.1    4.0      46.957
2014    9       30    17  46    4.68   495.9    4.0      46.940
2014    9       30    17  51    4.68   495.8    4.0      46.924
2014    9       30    17  56    4.68   495.7    4.0      46.908
2014    9       30    18   2    4.68   495.5    4.0      46.892
2014    9       30    18   7    4.68   495.4    4.0      46.876
2014    9       30    18  12    4.68   495.2    4.0      46.860
2014    9       30    18  18    4.67   495.1    4.0      46.845
2014    9       30    18  23    4.67   494.9    4.0      46.830
2014    9       30    18  28    4.67   494.8    4.0      46.815
2014    9       30    18  34    4.67   494.6    4.0      46.800
2014    9       30    18  39    4.67   494.5    4.0      46.785
2014    9       30    18  44    4.67   494.4    4.0      46.771
2014    9       30    18  50    4.67   494.2    4.0      46.757
2014    9       30    18  55    4.67   494.1    4.0      46.742
2014    9       30    19   0    4.67   493.9    4.0      46.729
2014    9       30    19   6    4.67   493.8    4.0      46.715
2014    9       30    19  11    4.67   493.6    4.0      46.701
2014    9       30    19  16    4.67   493.5    4.0      46.687
2014    9       30    19  22    4.67   493.3    4.0      46.673
2014    9       30    19  27    4.67   493.2    4.0      46.660
2014    9       30    19  33    4.67   493.1    4.0      46.646
2014    9       30    19  38    4.67   492.9    4.0      46.632
2014    9       30    19  43    4.67   492.8    4.0      46.617
2014    9       30    19  49    4.67   492.6    4.0      46.603
2014    9       30    19  54    4.67   492.5    4.1      46.589
2014    9       30    19  59    4.67   492.3    4.1      46.574
2014    9       30    20   5    4.67   492.2    4.1      46.559
2014    9       30    20  10    4.67   492.1    4.1      46.544
2014    9       30    20  15    4.67   491.9    4.1      46.528
2014    9       30    20  21    4.67   491.8    4.1      46.512
2014    9       30    20  26    4.67   491.6    4.1      46.496
2014    9       30    20  31    4.67   491.5    4.1      46.480
2014    9       30    20  37    4.66   491.3    4.1      46.463
2014    9       30    20  42    4.66   491.2    4.1      46.447
2014    9       30    20  47    4.66   491.0    4.1      46.429
2014    9       30    20  53    4.66   490.9    4.1      46.412
2014    9       30    20  58    4.66   490.8    4.1      46.395
2014    9       30    21   3    4.66   490.6    4.1      46.377
2014    9       30    21   9    4.66   490.5    4.1      46.359
2014    9       30    21  14    4.66   490.3    4.1      46.340
2014    9       30    21  20    4.66   490.2    4.1      46.322
2014    9       30    21  25    4.66   490.0    4.1      46.303
2014    9       30    21  30    4.66   489.9    4.1      46.284
2014    9       30    21  36    4.66   489.8    4.1      46.265
2014    9       30    21  41    4.66   489.6    4.1      46.245
2014    9       30    21  46    4.66   489.5    4.1      46.225
2014    9       30    21  52    4.66   489.3    4.1      46.205
2014    9       30    21  57    4.66   489.2    4.1      46.185
2014    9       30    22   2    4.66   489.1    4.1      46.164
2014    9       30    22   8    4.66   488.9    4.1      46.144
2014    9       30    22  13    4.66   488.8    4.1      46.123
2014    9       30    22  18    4.66   488.6    4.1      46.102
2014    9       30    22  24    4.66   488.5    4.1      46.080
2014    9       30    22  29    4.66   488.3    4.1      46.058
2014    9       30    22  34    4.66   488.2    4.1      46.036
2014    9       30    22  40    4.66   488.1    4.1      46.014
2014    9       30    22  45    4.66   487.9    4.1      45.991
2014    9       30    22  50    4.66   487.8    4.1      45.968
2014    9       30    22  56    4.66   487.6    4.1      45.946
2014    9       30    23   1    4.65   487.5    4.1      45.922
2014    9       30    23   7    4.65   487.3    4.1      45.899
2014    9       30    23  12    4.65   487.2    4.1      45.875
2014    9       30    23  17    4.65   487.1    4.1      45.852
2014    9       30    23  23    4.65   486.9    4.1      45.827
2014    9       30    23  28    4.65   486.8    4.1      45.803
2014    9       30    23  33    4.65   486.6    4.1      45.779
2014    9       30    23  39    4.65   486.5    4.1      45.755
2014    9       30    23  44    4.65   486.3    4.1      45.730
2014    9       30    23  49    4.65   486.2    4.1      45.705
2014    9       30    23  55    4.65   486.0    4.1      45.681
2014   10        1     0   0    4.65   485.9    4.1      45.656
