year    month   day   hour  minute  B_enl V_enl   n_enl       T_enl
[year] [month] [day] [hour][minute] [nT]  [km/s]  [cm-3]      [kK]
2014    9        2     0   1    4.40   546.0    3.6      51.053
2014    9        2     0   6    4.40   545.9    3.6      51.032
2014    9        2     0  12    4.39   545.8    3.6      51.011
2014    9        2     0  18    4.39   545.6    3.6      50.990
2014    9        2     0  23    4.39   545.5    3.6      50.970
2014    9        2     0  29    4.39   545.4    3.6      50.949
2014    9        2     0  34    4.39   545.3    3.6      50.928
2014    9        2     0  40    4.39   545.1    3.6      50.908
2014    9        2     0  46    4.39   545.0    3.6      50.888
2014    9        2     0  51    4.39   544.9    3.6      50.867
2014    9        2     0  57    4.38   544.7    3.6      50.847
2014    9        2     1   3    4.38   544.6    3.6      50.827
2014    9        2     1   8    4.38   544.5    3.6      50.807
2014    9        2     1  14    4.38   544.3    3.6      50.788
2014    9        2     1  20    4.38   544.2    3.6      50.768
2014    9        2     1  25    4.38   544.1    3.6      50.748
2014    9        2     1  31    4.38   543.9    3.6      50.729
2014    9        2     1  37    4.38   543.8    3.6      50.710
2014    9        2     1  42    4.37   543.7    3.6      50.691
2014    9        2     1  48    4.37   543.5    3.6      50.672
2014    9        2     1  53    4.37   543.4    3.6      50.653
2014    9        2     1  59    4.37   543.3    3.6      50.635
2014    9        2     2   5    4.37   543.1    3.6      50.616
2014    9        2     2  10    4.37   543.0    3.6      50.598
2014    9        2     2  16    4.37   542.9    3.6      50.580
2014    9        2     2  22    4.37   542.7    3.6      50.562
2014    9        2     2  27    4.36   542.6    3.6      50.543
2014    9        2     2  33    4.36   542.5    3.6      50.525
2014    9        2     2  39    4.36   542.3    3.6      50.507
2014    9        2     2  44    4.36   542.2    3.6      50.489
2014    9        2     2  50    4.36   542.1    3.6      50.471
2014    9        2     2  56    4.36   542.0    3.6      50.452
2014    9        2     3   1    4.36   541.8    3.6      50.434
2014    9        2     3   7    4.36   541.7    3.6      50.416
2014    9        2     3  12    4.35   541.6    3.6      50.397
2014    9        2     3  18    4.35   541.4    3.6      50.379
2014    9        2     3  24    4.35   541.3    3.6      50.360
2014    9        2     3  29    4.35   541.2    3.6      50.342
2014    9        2     3  35    4.35   541.1    3.6      50.324
2014    9        2     3  41    4.35   540.9    3.6      50.305
2014    9        2     3  46    4.35   540.8    3.6      50.286
2014    9        2     3  52    4.34   540.7    3.6      50.268
2014    9        2     3  58    4.34   540.5    3.6      50.248
2014    9        2     4   3    4.34   540.4    3.6      50.229
2014    9        2     4   9    4.34   540.3    3.6      50.209
2014    9        2     4  14    4.34   540.1    3.6      50.189
2014    9        2     4  20    4.34   540.0    3.6      50.169
2014    9        2     4  26    4.34   539.9    3.6      50.148
2014    9        2     4  31    4.34   539.7    3.6      50.128
2014    9        2     4  37    4.33   539.6    3.6      50.107
2014    9        2     4  43    4.33   539.5    3.6      50.086
2014    9        2     4  48    4.33   539.3    3.6      50.065
2014    9        2     4  54    4.33   539.2    3.6      50.043
2014    9        2     5   0    4.33   539.1    3.6      50.022
2014    9        2     5   5    4.33   538.9    3.6      50.001
2014    9        2     5  11    4.33   538.8    3.6      49.979
2014    9        2     5  17    4.32   538.7    3.6      49.958
2014    9        2     5  22    4.32   538.5    3.6      49.937
2014    9        2     5  28    4.32   538.4    3.6      49.916
2014    9        2     5  33    4.32   538.2    3.6      49.895
2014    9        2     5  39    4.32   538.1    3.6      49.874
2014    9        2     5  45    4.32   538.0    3.6      49.853
2014    9        2     5  50    4.32   537.8    3.6      49.833
2014    9        2     5  56    4.31   537.7    3.6      49.812
2014    9        2     6   2    4.31   537.5    3.6      49.792
2014    9        2     6   7    4.31   537.4    3.6      49.773
2014    9        2     6  13    4.31   537.3    3.6      49.754
2014    9        2     6  19    4.31   537.1    3.6      49.735
2014    9        2     6  24    4.31   537.0    3.6      49.717
2014    9        2     6  30    4.31   536.9    3.6      49.699
2014    9        2     6  36    4.31   536.7    3.6      49.681
2014    9        2     6  41    4.30   536.6    3.6      49.664
2014    9        2     6  47    4.30   536.4    3.6      49.647
2014    9        2     6  52    4.30   536.3    3.6      49.629
2014    9        2     6  58    4.30   536.2    3.6      49.612
2014    9        2     7   4    4.30   536.0    3.6      49.595
2014    9        2     7   9    4.30   535.9    3.6      49.577
2014    9        2     7  15    4.30   535.8    3.6      49.560
2014    9        2     7  21    4.30   535.6    3.6      49.543
2014    9        2     7  26    4.29   535.5    3.6      49.526
2014    9        2     7  32    4.29   535.3    3.6      49.508
2014    9        2     7  38    4.29   535.2    3.6      49.491
2014    9        2     7  43    4.29   535.1    3.6      49.474
2014    9        2     7  49    4.29   534.9    3.6      49.456
2014    9        2     7  54    4.29   534.8    3.6      49.439
2014    9        2     8   0    4.29   534.6    3.6      49.422
2014    9        2     8   6    4.28   534.5    3.6      49.404
2014    9        2     8  11    4.28   534.3    3.6      49.387
2014    9        2     8  17    4.28   534.2    3.6      49.369
2014    9        2     8  23    4.28   534.0    3.6      49.352
2014    9        2     8  28    4.28   533.9    3.6      49.334
2014    9        2     8  34    4.28   533.8    3.6      49.316
2014    9        2     8  40    4.28   533.6    3.6      49.298
2014    9        2     8  45    4.28   533.5    3.6      49.281
2014    9        2     8  51    4.27   533.3    3.6      49.263
2014    9        2     8  57    4.27   533.2    3.6      49.245
2014    9        2     9   2    4.27   533.0    3.6      49.226
2014    9        2     9   8    4.27   532.9    3.6      49.208
2014    9        2     9  13    4.27   532.7    3.6      49.189
2014    9        2     9  19    4.27   532.6    3.6      49.171
2014    9        2     9  25    4.27   532.4    3.6      49.152
2014    9        2     9  30    4.27   532.3    3.6      49.133
2014    9        2     9  36    4.27   532.1    3.6      49.114
2014    9        2     9  42    4.26   532.0    3.6      49.095
2014    9        2     9  47    4.26   531.8    3.6      49.076
2014    9        2     9  53    4.26   531.7    3.6      49.057
2014    9        2     9  59    4.26   531.6    3.6      49.038
2014    9        2    10   4    4.26   531.4    3.6      49.019
2014    9        2    10  10    4.26   531.3    3.6      49.000
2014    9        2    10  16    4.26   531.1    3.6      48.981
2014    9        2    10  21    4.26   531.0    3.6      48.963
2014    9        2    10  27    4.25   530.8    3.6      48.944
2014    9        2    10  32    4.25   530.7    3.6      48.926
2014    9        2    10  38    4.25   530.6    3.6      48.908
2014    9        2    10  44    4.25   530.4    3.6      48.889
2014    9        2    10  49    4.25   530.3    3.6      48.871
2014    9        2    10  55    4.25   530.1    3.6      48.852
2014    9        2    11   1    4.25   530.0    3.6      48.832
2014    9        2    11   6    4.25   529.8    3.6      48.813
2014    9        2    11  12    4.25   529.7    3.6      48.793
2014    9        2    11  18    4.24   529.6    3.6      48.772
2014    9        2    11  23    4.24   529.4    3.6      48.752
2014    9        2    11  29    4.24   529.3    3.6      48.730
2014    9        2    11  34    4.24   529.1    3.6      48.709
2014    9        2    11  40    4.24   529.0    3.6      48.687
2014    9        2    11  46    4.24   528.8    3.6      48.665
2014    9        2    11  51    4.24   528.7    3.6      48.642
2014    9        2    11  57    4.24   528.5    3.6      48.620
2014    9        2    12   3    4.23   528.4    3.6      48.597
2014    9        2    12   8    4.23   528.3    3.6      48.574
2014    9        2    12  14    4.23   528.1    3.6      48.550
2014    9        2    12  20    4.23   528.0    3.6      48.527
2014    9        2    12  25    4.23   527.8    3.6      48.503
2014    9        2    12  31    4.23   527.7    3.6      48.480
2014    9        2    12  37    4.23   527.5    3.6      48.456
2014    9        2    12  42    4.22   527.4    3.6      48.433
2014    9        2    12  48    4.22   527.2    3.6      48.409
2014    9        2    12  53    4.22   527.1    3.6      48.386
2014    9        2    12  59    4.22   526.9    3.6      48.362
2014    9        2    13   5    4.22   526.8    3.6      48.339
2014    9        2    13  10    4.22   526.6    3.6      48.317
2014    9        2    13  16    4.22   526.5    3.6      48.294
2014    9        2    13  22    4.22   526.3    3.6      48.272
2014    9        2    13  27    4.21   526.2    3.6      48.250
2014    9        2    13  33    4.21   526.0    3.6      48.229
2014    9        2    13  39    4.21   525.9    3.6      48.208
2014    9        2    13  44    4.21   525.7    3.6      48.187
2014    9        2    13  50    4.21   525.6    3.6      48.166
2014    9        2    13  56    4.21   525.4    3.6      48.146
2014    9        2    14   1    4.21   525.3    3.6      48.125
2014    9        2    14   7    4.21   525.2    3.6      48.104
2014    9        2    14  12    4.20   525.0    3.6      48.083
2014    9        2    14  18    4.20   524.9    3.6      48.062
2014    9        2    14  24    4.20   524.7    3.6      48.041
2014    9        2    14  29    4.20   524.6    3.6      48.020
2014    9        2    14  35    4.20   524.4    3.6      47.999
2014    9        2    14  41    4.20   524.3    3.6      47.977
2014    9        2    14  46    4.20   524.1    3.6      47.955
2014    9        2    14  52    4.20   524.0    3.6      47.933
2014    9        2    14  58    4.19   523.8    3.6      47.911
2014    9        2    15   3    4.19   523.6    3.6      47.889
2014    9        2    15   9    4.19   523.5    3.6      47.866
2014    9        2    15  15    4.19   523.3    3.6      47.844
2014    9        2    15  20    4.19   523.2    3.7      47.822
2014    9        2    15  26    4.19   523.0    3.7      47.799
2014    9        2    15  31    4.19   522.9    3.7      47.777
2014    9        2    15  37    4.19   522.7    3.7      47.755
2014    9        2    15  43    4.18   522.5    3.7      47.733
2014    9        2    15  48    4.18   522.4    3.7      47.711
2014    9        2    15  54    4.18   522.2    3.7      47.689
2014    9        2    16   0    4.18   522.0    3.7      47.668
2014    9        2    16   5    4.18   521.9    3.7      47.648
2014    9        2    16  11    4.18   521.7    3.7      47.627
2014    9        2    16  17    4.18   521.6    3.7      47.607
2014    9        2    16  22    4.18   521.4    3.7      47.588
2014    9        2    16  28    4.18   521.2    3.7      47.570
2014    9        2    16  33    4.17   521.1    3.7      47.552
2014    9        2    16  39    4.17   520.9    3.7      47.536
2014    9        2    16  45    4.17   520.8    3.7      47.520
2014    9        2    16  50    4.17   520.6    3.7      47.505
2014    9        2    16  56    4.17   520.4    3.7      47.490
2014    9        2    17   2    4.17   520.3    3.7      47.476
2014    9        2    17   7    4.17   520.1    3.7      47.463
2014    9        2    17  13    4.17   520.0    3.7      47.449
2014    9        2    17  19    4.17   519.8    3.7      47.437
2014    9        2    17  24    4.17   519.7    3.7      47.424
2014    9        2    17  30    4.17   519.5    3.7      47.411
2014    9        2    17  36    4.16   519.4    3.7      47.399
2014    9        2    17  41    4.16   519.2    3.7      47.387
2014    9        2    17  47    4.16   519.1    3.7      47.374
2014    9        2    17  52    4.16   518.9    3.7      47.362
2014    9        2    17  58    4.16   518.8    3.7      47.348
2014    9        2    18   4    4.16   518.6    3.7      47.334
2014    9        2    18   9    4.16   518.5    3.7      47.320
2014    9        2    18  15    4.16   518.3    3.7      47.305
2014    9        2    18  21    4.16   518.1    3.7      47.290
2014    9        2    18  26    4.15   518.0    3.7      47.274
2014    9        2    18  32    4.15   517.8    3.7      47.258
2014    9        2    18  38    4.15   517.7    3.7      47.241
2014    9        2    18  43    4.15   517.5    3.7      47.223
2014    9        2    18  49    4.15   517.4    3.7      47.205
2014    9        2    18  54    4.15   517.2    3.7      47.187
2014    9        2    19   0    4.15   517.0    3.7      47.168
2014    9        2    19   6    4.15   516.9    3.7      47.149
2014    9        2    19  11    4.15   516.7    3.7      47.129
2014    9        2    19  17    4.14   516.6    3.7      47.109
2014    9        2    19  23    4.14   516.4    3.7      47.089
2014    9        2    19  28    4.14   516.3    3.7      47.069
2014    9        2    19  34    4.14   516.1    3.7      47.048
2014    9        2    19  40    4.14   515.9    3.7      47.027
2014    9        2    19  45    4.14   515.8    3.7      47.006
2014    9        2    19  51    4.14   515.6    3.7      46.984
2014    9        2    19  57    4.14   515.5    3.7      46.963
2014    9        2    20   2    4.14   515.3    3.7      46.941
2014    9        2    20   8    4.14   515.2    3.7      46.919
2014    9        2    20  13    4.13   515.0    3.7      46.897
2014    9        2    20  19    4.13   514.9    3.7      46.875
2014    9        2    20  25    4.13   514.7    3.7      46.853
2014    9        2    20  30    4.13   514.5    3.7      46.830
2014    9        2    20  36    4.13   514.4    3.7      46.808
2014    9        2    20  42    4.13   514.2    3.7      46.785
2014    9        2    20  47    4.13   514.1    3.7      46.763
2014    9        2    20  53    4.13   513.9    3.7      46.740
2014    9        2    20  59    4.13   513.8    3.7      46.717
2014    9        2    21   4    4.12   513.6    3.7      46.694
2014    9        2    21  10    4.12   513.5    3.7      46.671
2014    9        2    21  16    4.12   513.3    3.7      46.648
2014    9        2    21  21    4.12   513.1    3.7      46.624
2014    9        2    21  27    4.12   513.0    3.7      46.601
2014    9        2    21  32    4.12   512.8    3.7      46.577
2014    9        2    21  38    4.12   512.7    3.7      46.552
2014    9        2    21  44    4.12   512.5    3.7      46.528
2014    9        2    21  49    4.12   512.4    3.7      46.503
2014    9        2    21  55    4.12   512.2    3.7      46.477
2014    9        2    22   1    4.11   512.1    3.7      46.452
2014    9        2    22   6    4.11   511.9    3.7      46.426
2014    9        2    22  12    4.11   511.7    3.7      46.400
2014    9        2    22  18    4.11   511.6    3.7      46.374
2014    9        2    22  23    4.11   511.4    3.7      46.347
2014    9        2    22  29    4.11   511.3    3.7      46.321
2014    9        2    22  35    4.11   511.1    3.7      46.294
2014    9        2    22  40    4.11   510.9    3.7      46.268
2014    9        2    22  46    4.11   510.8    3.7      46.241
2014    9        2    22  51    4.10   510.6    3.7      46.215
2014    9        2    22  57    4.10   510.4    3.7      46.189
2014    9        2    23   3    4.10   510.3    3.7      46.163
2014    9        2    23   8    4.10   510.1    3.7      46.137
2014    9        2    23  14    4.10   509.9    3.7      46.112
2014    9        2    23  20    4.10   509.8    3.7      46.087
2014    9        2    23  25    4.10   509.6    3.7      46.062
2014    9        2    23  31    4.10   509.5    3.7      46.038
2014    9        2    23  37    4.10   509.3    3.7      46.014
2014    9        2    23  42    4.09   509.1    3.7      45.991
2014    9        2    23  48    4.09   509.0    3.7      45.969
2014    9        2    23  53    4.09   508.8    3.7      45.947
2014    9        2    23  59    4.09   508.7    3.7      45.927
2014    9        3     0   5    4.09   508.5    3.7      45.907
2014    9        3     0  10    4.09   508.3    3.7      45.887
2014    9        3     0  16    4.09   508.2    3.7      45.868
2014    9        3     0  22    4.09   508.0    3.7      45.849
2014    9        3     0  27    4.09   507.9    3.7      45.830
2014    9        3     0  33    4.09   507.7    3.8      45.812
2014    9        3     0  39    4.09   507.6    3.8      45.793
2014    9        3     0  44    4.08   507.4    3.8      45.774
2014    9        3     0  50    4.08   507.2    3.8      45.756
2014    9        3     0  56    4.08   507.1    3.8      45.737
2014    9        3     1   1    4.08   506.9    3.8      45.718
2014    9        3     1   7    4.08   506.8    3.8      45.699
2014    9        3     1  12    4.08   506.6    3.8      45.679
2014    9        3     1  18    4.08   506.5    3.8      45.660
2014    9        3     1  24    4.08   506.3    3.8      45.640
2014    9        3     1  29    4.08   506.1    3.8      45.620
2014    9        3     1  35    4.08   506.0    3.8      45.600
2014    9        3     1  41    4.07   505.8    3.8      45.579
2014    9        3     1  46    4.07   505.6    3.8      45.559
2014    9        3     1  52    4.07   505.5    3.8      45.538
2014    9        3     1  58    4.07   505.3    3.8      45.517
2014    9        3     2   3    4.07   505.1    3.8      45.496
2014    9        3     2   9    4.07   505.0    3.8      45.475
2014    9        3     2  15    4.07   504.8    3.8      45.454
2014    9        3     2  20    4.07   504.6    3.8      45.434
2014    9        3     2  26    4.07   504.5    3.8      45.413
2014    9        3     2  31    4.07   504.3    3.8      45.392
2014    9        3     2  37    4.07   504.1    3.8      45.372
2014    9        3     2  43    4.06   504.0    3.8      45.352
2014    9        3     2  48    4.06   503.8    3.8      45.332
2014    9        3     2  54    4.06   503.6    3.8      45.312
2014    9        3     3   0    4.06   503.5    3.8      45.293
2014    9        3     3   5    4.06   503.3    3.8      45.274
2014    9        3     3  11    4.06   503.1    3.8      45.255
2014    9        3     3  17    4.06   503.0    3.8      45.237
2014    9        3     3  22    4.06   502.8    3.8      45.219
2014    9        3     3  28    4.06   502.7    3.8      45.201
2014    9        3     3  33    4.06   502.5    3.8      45.184
2014    9        3     3  39    4.06   502.3    3.8      45.166
2014    9        3     3  45    4.06   502.2    3.8      45.149
2014    9        3     3  50    4.05   502.0    3.8      45.132
2014    9        3     3  56    4.05   501.8    3.8      45.115
2014    9        3     4   2    4.05   501.7    3.8      45.098
2014    9        3     4   7    4.05   501.5    3.8      45.080
2014    9        3     4  13    4.05   501.3    3.8      45.063
2014    9        3     4  19    4.05   501.2    3.8      45.045
2014    9        3     4  24    4.05   501.0    3.8      45.027
2014    9        3     4  30    4.05   500.8    3.8      45.008
2014    9        3     4  36    4.05   500.7    3.8      44.989
2014    9        3     4  41    4.05   500.5    3.8      44.970
2014    9        3     4  47    4.05   500.4    3.8      44.950
2014    9        3     4  52    4.05   500.2    3.8      44.930
2014    9        3     4  58    4.05   500.0    3.8      44.910
2014    9        3     5   4    4.04   499.9    3.8      44.889
2014    9        3     5   9    4.04   499.7    3.8      44.869
2014    9        3     5  15    4.04   499.5    3.8      44.848
2014    9        3     5  21    4.04   499.4    3.8      44.827
2014    9        3     5  26    4.04   499.2    3.8      44.805
2014    9        3     5  32    4.04   499.0    3.8      44.783
2014    9        3     5  38    4.04   498.9    3.8      44.761
2014    9        3     5  43    4.04   498.7    3.8      44.739
2014    9        3     5  49    4.04   498.5    3.8      44.717
2014    9        3     5  55    4.04   498.4    3.8      44.695
2014    9        3     6   0    4.04   498.2    3.8      44.673
2014    9        3     6   6    4.04   498.0    3.8      44.650
2014    9        3     6  11    4.04   497.9    3.8      44.628
2014    9        3     6  17    4.03   497.7    3.8      44.605
2014    9        3     6  23    4.03   497.5    3.9      44.583
2014    9        3     6  28    4.03   497.4    3.9      44.560
2014    9        3     6  34    4.03   497.2    3.9      44.538
2014    9        3     6  40    4.03   497.0    3.9      44.515
2014    9        3     6  45    4.03   496.9    3.9      44.492
2014    9        3     6  51    4.03   496.7    3.9      44.469
2014    9        3     6  57    4.03   496.6    3.9      44.446
2014    9        3     7   2    4.03   496.4    3.9      44.423
2014    9        3     7   8    4.03   496.2    3.9      44.400
2014    9        3     7  13    4.03   496.1    3.9      44.377
2014    9        3     7  19    4.03   495.9    3.9      44.353
2014    9        3     7  25    4.02   495.7    3.9      44.329
2014    9        3     7  30    4.02   495.6    3.9      44.305
2014    9        3     7  36    4.02   495.4    3.9      44.281
2014    9        3     7  42    4.02   495.3    3.9      44.257
2014    9        3     7  47    4.02   495.1    3.9      44.232
2014    9        3     7  53    4.02   494.9    3.9      44.207
2014    9        3     7  59    4.02   494.8    3.9      44.182
2014    9        3     8   4    4.02   494.6    3.9      44.157
2014    9        3     8  10    4.02   494.4    3.9      44.131
2014    9        3     8  16    4.02   494.3    3.9      44.106
2014    9        3     8  21    4.02   494.1    3.9      44.080
2014    9        3     8  27    4.01   493.9    3.9      44.053
2014    9        3     8  32    4.01   493.8    3.9      44.027
2014    9        3     8  38    4.01   493.6    3.9      44.000
2014    9        3     8  44    4.01   493.4    3.9      43.974
2014    9        3     8  49    4.01   493.3    3.9      43.947
2014    9        3     8  55    4.01   493.1    3.9      43.920
2014    9        3     9   1    4.01   492.9    3.9      43.893
2014    9        3     9   6    4.01   492.8    3.9      43.866
2014    9        3     9  12    4.01   492.6    3.9      43.839
2014    9        3     9  18    4.01   492.4    3.9      43.812
2014    9        3     9  23    4.01   492.3    3.9      43.786
2014    9        3     9  29    4.00   492.1    3.9      43.759
2014    9        3     9  35    4.00   491.9    3.9      43.733
2014    9        3     9  40    4.00   491.8    3.9      43.707
2014    9        3     9  46    4.00   491.6    3.9      43.681
2014    9        3     9  51    4.00   491.4    3.9      43.656
2014    9        3     9  57    4.00   491.3    3.9      43.631
2014    9        3    10   3    4.00   491.1    3.9      43.606
2014    9        3    10   8    4.00   490.9    3.9      43.583
2014    9        3    10  14    4.00   490.8    3.9      43.559
2014    9        3    10  20    4.00   490.6    3.9      43.536
2014    9        3    10  25    4.00   490.4    3.9      43.514
2014    9        3    10  31    4.00   490.3    3.9      43.492
2014    9        3    10  37    4.00   490.1    3.9      43.471
2014    9        3    10  42    4.00   489.9    3.9      43.450
2014    9        3    10  48    3.99   489.8    3.9      43.430
2014    9        3    10  53    3.99   489.6    3.9      43.410
2014    9        3    10  59    3.99   489.4    3.9      43.390
2014    9        3    11   5    3.99   489.3    3.9      43.371
2014    9        3    11  10    3.99   489.1    3.9      43.352
2014    9        3    11  16    3.99   488.9    3.9      43.333
2014    9        3    11  22    3.99   488.8    3.9      43.314
2014    9        3    11  27    3.99   488.6    3.9      43.295
2014    9        3    11  33    3.99   488.4    3.9      43.276
2014    9        3    11  39    3.99   488.3    3.9      43.257
2014    9        3    11  44    3.99   488.1    3.9      43.238
2014    9        3    11  50    3.99   487.9    3.9      43.218
2014    9        3    11  56    3.99   487.8    3.9      43.199
2014    9        3    12   1    3.99   487.6    3.9      43.180
2014    9        3    12   7    3.99   487.4    4.0      43.161
2014    9        3    12  12    3.99   487.3    4.0      43.141
2014    9        3    12  18    3.98   487.1    4.0      43.122
2014    9        3    12  24    3.98   486.9    4.0      43.102
2014    9        3    12  29    3.98   486.7    4.0      43.083
2014    9        3    12  35    3.98   486.6    4.0      43.063
2014    9        3    12  41    3.98   486.4    4.0      43.044
2014    9        3    12  46    3.98   486.2    4.0      43.024
2014    9        3    12  52    3.98   486.0    4.0      43.004
2014    9        3    12  58    3.98   485.9    4.0      42.985
2014    9        3    13   3    3.98   485.7    4.0      42.965
2014    9        3    13   9    3.98   485.5    4.0      42.946
2014    9        3    13  15    3.98   485.3    4.0      42.926
2014    9        3    13  20    3.98   485.2    4.0      42.906
2014    9        3    13  26    3.98   485.0    4.0      42.886
2014    9        3    13  31    3.98   484.8    4.0      42.867
2014    9        3    13  37    3.98   484.6    4.0      42.847
2014    9        3    13  43    3.98   484.5    4.0      42.827
2014    9        3    13  48    3.98   484.3    4.0      42.806
2014    9        3    13  54    3.97   484.1    4.0      42.786
2014    9        3    14   0    3.97   484.0    4.0      42.765
2014    9        3    14   5    3.97   483.8    4.0      42.744
2014    9        3    14  11    3.97   483.6    4.0      42.723
2014    9        3    14  17    3.97   483.4    4.0      42.702
2014    9        3    14  22    3.97   483.3    4.0      42.680
2014    9        3    14  28    3.97   483.1    4.0      42.658
2014    9        3    14  33    3.97   482.9    4.0      42.636
2014    9        3    14  39    3.97   482.7    4.0      42.614
2014    9        3    14  45    3.97   482.6    4.0      42.591
2014    9        3    14  50    3.97   482.4    4.0      42.569
2014    9        3    14  56    3.97   482.2    4.0      42.545
2014    9        3    15   2    3.97   482.0    4.0      42.522
2014    9        3    15   7    3.97   481.9    4.0      42.499
2014    9        3    15  13    3.97   481.7    4.0      42.475
2014    9        3    15  19    3.97   481.5    4.0      42.451
2014    9        3    15  24    3.97   481.3    4.0      42.427
2014    9        3    15  30    3.96   481.2    4.0      42.402
2014    9        3    15  36    3.96   481.0    4.0      42.378
2014    9        3    15  41    3.96   480.8    4.0      42.353
2014    9        3    15  47    3.96   480.6    4.0      42.328
2014    9        3    15  52    3.96   480.5    4.0      42.302
2014    9        3    15  58    3.96   480.3    4.0      42.277
2014    9        3    16   4    3.96   480.1    4.0      42.251
2014    9        3    16   9    3.96   480.0    4.0      42.225
2014    9        3    16  15    3.96   479.8    4.0      42.199
2014    9        3    16  21    3.96   479.6    4.0      42.173
2014    9        3    16  26    3.96   479.4    4.0      42.146
2014    9        3    16  32    3.96   479.3    4.0      42.120
2014    9        3    16  38    3.96   479.1    4.0      42.093
2014    9        3    16  43    3.96   478.9    4.0      42.066
2014    9        3    16  49    3.95   478.7    4.0      42.040
2014    9        3    16  55    3.95   478.6    4.0      42.013
2014    9        3    17   0    3.95   478.4    4.0      41.986
2014    9        3    17   6    3.95   478.2    4.0      41.959
2014    9        3    17  11    3.95   478.1    4.0      41.932
2014    9        3    17  17    3.95   477.9    4.0      41.906
2014    9        3    17  23    3.95   477.7    4.0      41.879
2014    9        3    17  28    3.95   477.5    4.1      41.852
2014    9        3    17  34    3.95   477.4    4.1      41.825
2014    9        3    17  40    3.95   477.2    4.1      41.799
2014    9        3    17  45    3.95   477.0    4.1      41.772
2014    9        3    17  51    3.95   476.9    4.1      41.746
2014    9        3    17  57    3.95   476.7    4.1      41.719
2014    9        3    18   2    3.95   476.5    4.1      41.693
2014    9        3    18   8    3.95   476.4    4.1      41.667
2014    9        3    18  13    3.95   476.2    4.1      41.641
2014    9        3    18  19    3.94   476.0    4.1      41.615
2014    9        3    18  25    3.94   475.8    4.1      41.589
2014    9        3    18  30    3.94   475.7    4.1      41.563
2014    9        3    18  36    3.94   475.5    4.1      41.538
2014    9        3    18  42    3.94   475.3    4.1      41.512
2014    9        3    18  47    3.94   475.2    4.1      41.487
2014    9        3    18  53    3.94   475.0    4.1      41.462
2014    9        3    18  59    3.94   474.8    4.1      41.437
2014    9        3    19   4    3.94   474.6    4.1      41.412
2014    9        3    19  10    3.94   474.5    4.1      41.387
2014    9        3    19  16    3.94   474.3    4.1      41.363
2014    9        3    19  21    3.94   474.1    4.1      41.338
2014    9        3    19  27    3.94   473.9    4.1      41.314
2014    9        3    19  32    3.94   473.8    4.1      41.290
2014    9        3    19  38    3.94   473.6    4.1      41.267
2014    9        3    19  44    3.94   473.4    4.1      41.243
2014    9        3    19  49    3.94   473.2    4.1      41.220
2014    9        3    19  55    3.93   473.1    4.1      41.197
2014    9        3    20   1    3.93   472.9    4.1      41.174
2014    9        3    20   6    3.93   472.7    4.1      41.151
2014    9        3    20  12    3.93   472.5    4.1      41.129
2014    9        3    20  18    3.93   472.3    4.1      41.107
2014    9        3    20  23    3.93   472.2    4.1      41.085
2014    9        3    20  29    3.93   472.0    4.1      41.063
2014    9        3    20  35    3.93   471.8    4.1      41.041
2014    9        3    20  40    3.93   471.6    4.1      41.020
2014    9        3    20  46    3.93   471.5    4.1      40.999
2014    9        3    20  51    3.93   471.3    4.1      40.977
2014    9        3    20  57    3.93   471.1    4.1      40.956
2014    9        3    21   3    3.93   470.9    4.1      40.935
2014    9        3    21   8    3.93   470.7    4.1      40.913
2014    9        3    21  14    3.93   470.6    4.1      40.892
2014    9        3    21  20    3.93   470.4    4.2      40.871
2014    9        3    21  25    3.93   470.2    4.2      40.850
2014    9        3    21  31    3.93   470.0    4.2      40.828
2014    9        3    21  37    3.93   469.8    4.2      40.807
2014    9        3    21  42    3.93   469.7    4.2      40.785
2014    9        3    21  48    3.93   469.5    4.2      40.763
2014    9        3    21  54    3.93   469.3    4.2      40.741
2014    9        3    21  59    3.93   469.1    4.2      40.719
2014    9        3    22   5    3.93   468.9    4.2      40.697
2014    9        3    22  10    3.92   468.8    4.2      40.675
2014    9        3    22  16    3.92   468.6    4.2      40.652
2014    9        3    22  22    3.92   468.4    4.2      40.630
2014    9        3    22  27    3.92   468.2    4.2      40.607
2014    9        3    22  33    3.92   468.0    4.2      40.584
2014    9        3    22  39    3.92   467.8    4.2      40.560
2014    9        3    22  44    3.92   467.7    4.2      40.537
2014    9        3    22  50    3.92   467.5    4.2      40.513
2014    9        3    22  56    3.92   467.3    4.2      40.489
2014    9        3    23   1    3.92   467.1    4.2      40.465
2014    9        3    23   7    3.92   466.9    4.2      40.441
2014    9        3    23  12    3.92   466.8    4.2      40.416
2014    9        3    23  18    3.92   466.6    4.2      40.392
2014    9        3    23  24    3.92   466.4    4.2      40.367
2014    9        3    23  29    3.92   466.2    4.2      40.341
2014    9        3    23  35    3.92   466.0    4.2      40.316
2014    9        3    23  41    3.92   465.9    4.2      40.290
2014    9        3    23  46    3.92   465.7    4.2      40.265
2014    9        3    23  52    3.92   465.5    4.2      40.239
2014    9        3    23  58    3.92   465.3    4.2      40.212
2014    9        4     0   3    3.92   465.1    4.2      40.186
2014    9        4     0   9    3.92   465.0    4.2      40.159
2014    9        4     0  15    3.92   464.8    4.2      40.132
2014    9        4     0  20    3.92   464.6    4.2      40.105
2014    9        4     0  26    3.92   464.4    4.2      40.077
2014    9        4     0  31    3.91   464.2    4.2      40.050
2014    9        4     0  37    3.91   464.1    4.2      40.022
2014    9        4     0  43    3.91   463.9    4.2      39.994
2014    9        4     0  48    3.91   463.7    4.2      39.966
2014    9        4     0  54    3.91   463.5    4.2      39.938
2014    9        4     1   0    3.91   463.3    4.3      39.909
2014    9        4     1   5    3.91   463.2    4.3      39.880
2014    9        4     1  11    3.91   463.0    4.3      39.852
2014    9        4     1  17    3.91   462.8    4.3      39.823
2014    9        4     1  22    3.91   462.6    4.3      39.794
2014    9        4     1  28    3.91   462.4    4.3      39.765
2014    9        4     1  33    3.91   462.3    4.3      39.736
2014    9        4     1  39    3.91   462.1    4.3      39.707
2014    9        4     1  45    3.91   461.9    4.3      39.678
2014    9        4     1  50    3.91   461.7    4.3      39.649
2014    9        4     1  56    3.91   461.5    4.3      39.620
2014    9        4     2   2    3.91   461.4    4.3      39.591
2014    9        4     2   7    3.91   461.2    4.3      39.562
2014    9        4     2  13    3.91   461.0    4.3      39.533
2014    9        4     2  19    3.91   460.8    4.3      39.505
2014    9        4     2  24    3.91   460.6    4.3      39.476
2014    9        4     2  30    3.91   460.4    4.3      39.448
2014    9        4     2  36    3.91   460.3    4.3      39.420
2014    9        4     2  41    3.90   460.1    4.3      39.392
2014    9        4     2  47    3.90   459.9    4.3      39.364
2014    9        4     2  52    3.90   459.7    4.3      39.337
2014    9        4     2  58    3.90   459.5    4.3      39.310
2014    9        4     3   4    3.90   459.4    4.3      39.283
2014    9        4     3   9    3.90   459.2    4.3      39.256
2014    9        4     3  15    3.90   459.0    4.3      39.230
2014    9        4     3  21    3.90   458.8    4.3      39.204
2014    9        4     3  26    3.90   458.6    4.3      39.178
2014    9        4     3  32    3.90   458.5    4.3      39.153
2014    9        4     3  38    3.90   458.3    4.3      39.127
2014    9        4     3  43    3.90   458.1    4.3      39.102
2014    9        4     3  49    3.90   457.9    4.3      39.078
2014    9        4     3  55    3.90   457.7    4.3      39.053
2014    9        4     4   0    3.90   457.5    4.3      39.029
2014    9        4     4   6    3.90   457.4    4.3      39.005
2014    9        4     4  11    3.90   457.2    4.3      38.981
2014    9        4     4  17    3.90   457.0    4.3      38.957
2014    9        4     4  23    3.90   456.8    4.3      38.933
2014    9        4     4  28    3.90   456.6    4.3      38.910
2014    9        4     4  34    3.90   456.5    4.4      38.886
2014    9        4     4  40    3.90   456.3    4.4      38.863
2014    9        4     4  45    3.90   456.1    4.4      38.840
2014    9        4     4  51    3.90   455.9    4.4      38.817
2014    9        4     4  57    3.90   455.7    4.4      38.793
2014    9        4     5   2    3.90   455.6    4.4      38.770
2014    9        4     5   8    3.90   455.4    4.4      38.747
2014    9        4     5  14    3.90   455.2    4.4      38.724
2014    9        4     5  19    3.90   455.0    4.4      38.700
2014    9        4     5  25    3.90   454.8    4.4      38.677
2014    9        4     5  30    3.90   454.6    4.4      38.653
2014    9        4     5  36    3.90   454.5    4.4      38.630
2014    9        4     5  42    3.90   454.3    4.4      38.606
2014    9        4     5  47    3.90   454.1    4.4      38.582
2014    9        4     5  53    3.90   453.9    4.4      38.558
2014    9        4     5  59    3.90   453.7    4.4      38.534
2014    9        4     6   4    3.89   453.6    4.4      38.510
2014    9        4     6  10    3.89   453.4    4.4      38.486
2014    9        4     6  16    3.89   453.2    4.4      38.461
2014    9        4     6  21    3.89   453.0    4.4      38.437
2014    9        4     6  27    3.89   452.8    4.4      38.412
2014    9        4     6  33    3.89   452.6    4.4      38.387
2014    9        4     6  38    3.89   452.4    4.4      38.362
2014    9        4     6  44    3.89   452.3    4.4      38.337
2014    9        4     6  49    3.89   452.1    4.4      38.312
2014    9        4     6  55    3.89   451.9    4.4      38.286
2014    9        4     7   1    3.89   451.7    4.4      38.261
2014    9        4     7   6    3.89   451.5    4.4      38.235
2014    9        4     7  12    3.89   451.3    4.4      38.209
2014    9        4     7  18    3.89   451.2    4.4      38.183
2014    9        4     7  23    3.89   451.0    4.5      38.157
2014    9        4     7  29    3.89   450.8    4.5      38.131
2014    9        4     7  35    3.89   450.6    4.5      38.104
2014    9        4     7  40    3.89   450.4    4.5      38.078
2014    9        4     7  46    3.89   450.2    4.5      38.051
2014    9        4     7  51    3.89   450.1    4.5      38.024
2014    9        4     7  57    3.89   449.9    4.5      37.997
2014    9        4     8   3    3.89   449.7    4.5      37.970
2014    9        4     8   8    3.89   449.5    4.5      37.943
2014    9        4     8  14    3.89   449.3    4.5      37.915
2014    9        4     8  20    3.89   449.2    4.5      37.888
2014    9        4     8  25    3.89   449.0    4.5      37.860
2014    9        4     8  31    3.89   448.8    4.5      37.832
2014    9        4     8  37    3.89   448.6    4.5      37.805
2014    9        4     8  42    3.89   448.4    4.5      37.777
2014    9        4     8  48    3.89   448.2    4.5      37.749
2014    9        4     8  54    3.89   448.1    4.5      37.721
2014    9        4     8  59    3.89   447.9    4.5      37.692
2014    9        4     9   5    3.89   447.7    4.5      37.664
2014    9        4     9  10    3.89   447.5    4.5      37.636
2014    9        4     9  16    3.89   447.3    4.5      37.608
2014    9        4     9  22    3.89   447.1    4.5      37.579
2014    9        4     9  27    3.89   447.0    4.5      37.551
2014    9        4     9  33    3.89   446.8    4.5      37.522
2014    9        4     9  39    3.89   446.6    4.5      37.494
2014    9        4     9  44    3.89   446.4    4.5      37.465
2014    9        4     9  50    3.89   446.2    4.5      37.437
2014    9        4     9  56    3.89   446.1    4.5      37.408
2014    9        4    10   1    3.89   445.9    4.5      37.380
2014    9        4    10   7    3.89   445.7    4.5      37.352
2014    9        4    10  12    3.89   445.5    4.5      37.323
2014    9        4    10  18    3.89   445.3    4.6      37.295
2014    9        4    10  24    3.89   445.1    4.6      37.267
2014    9        4    10  29    3.89   445.0    4.6      37.239
2014    9        4    10  35    3.89   444.8    4.6      37.211
2014    9        4    10  41    3.89   444.6    4.6      37.182
2014    9        4    10  46    3.89   444.4    4.6      37.154
2014    9        4    10  52    3.89   444.2    4.6      37.127
2014    9        4    10  58    3.89   444.1    4.6      37.099
2014    9        4    11   3    3.89   443.9    4.6      37.071
2014    9        4    11   9    3.89   443.7    4.6      37.044
2014    9        4    11  15    3.89   443.5    4.6      37.016
2014    9        4    11  20    3.89   443.3    4.6      36.989
2014    9        4    11  26    3.89   443.1    4.6      36.961
2014    9        4    11  31    3.89   443.0    4.6      36.934
2014    9        4    11  37    3.89   442.8    4.6      36.907
2014    9        4    11  43    3.89   442.6    4.6      36.880
2014    9        4    11  48    3.89   442.4    4.6      36.853
2014    9        4    11  54    3.89   442.2    4.6      36.826
2014    9        4    12   0    3.89   442.1    4.6      36.799
2014    9        4    12   5    3.89   441.9    4.6      36.773
2014    9        4    12  11    3.89   441.7    4.6      36.746
2014    9        4    12  17    3.89   441.5    4.6      36.719
2014    9        4    12  22    3.89   441.3    4.6      36.693
2014    9        4    12  28    3.89   441.2    4.6      36.666
2014    9        4    12  34    3.89   441.0    4.6      36.640
2014    9        4    12  39    3.89   440.8    4.6      36.614
2014    9        4    12  45    3.89   440.6    4.6      36.588
2014    9        4    12  50    3.89   440.4    4.6      36.562
2014    9        4    12  56    3.89   440.3    4.6      36.535
2014    9        4    13   2    3.89   440.1    4.6      36.509
2014    9        4    13   7    3.89   439.9    4.7      36.483
2014    9        4    13  13    3.89   439.7    4.7      36.457
2014    9        4    13  19    3.89   439.5    4.7      36.431
2014    9        4    13  24    3.89   439.3    4.7      36.406
2014    9        4    13  30    3.89   439.2    4.7      36.380
2014    9        4    13  36    3.89   439.0    4.7      36.354
2014    9        4    13  41    3.89   438.8    4.7      36.328
2014    9        4    13  47    3.89   438.6    4.7      36.302
2014    9        4    13  53    3.89   438.4    4.7      36.276
2014    9        4    13  58    3.89   438.3    4.7      36.250
2014    9        4    14   4    3.89   438.1    4.7      36.225
2014    9        4    14   9    3.89   437.9    4.7      36.199
2014    9        4    14  15    3.89   437.7    4.7      36.173
2014    9        4    14  21    3.89   437.5    4.7      36.147
2014    9        4    14  26    3.89   437.4    4.7      36.121
2014    9        4    14  32    3.89   437.2    4.7      36.096
2014    9        4    14  38    3.89   437.0    4.7      36.070
2014    9        4    14  43    3.89   436.8    4.7      36.044
2014    9        4    14  49    3.89   436.6    4.7      36.018
2014    9        4    14  55    3.89   436.4    4.7      35.992
2014    9        4    15   0    3.89   436.3    4.7      35.966
2014    9        4    15   6    3.89   436.1    4.7      35.940
2014    9        4    15  12    3.89   435.9    4.7      35.914
2014    9        4    15  17    3.89   435.7    4.7      35.888
2014    9        4    15  23    3.89   435.5    4.7      35.861
2014    9        4    15  28    3.89   435.4    4.7      35.835
2014    9        4    15  34    3.89   435.2    4.7      35.809
2014    9        4    15  40    3.89   435.0    4.7      35.783
2014    9        4    15  45    3.89   434.8    4.8      35.756
2014    9        4    15  51    3.89   434.6    4.8      35.730
2014    9        4    15  57    3.89   434.4    4.8      35.703
2014    9        4    16   2    3.89   434.3    4.8      35.677
2014    9        4    16   8    3.89   434.1    4.8      35.650
2014    9        4    16  14    3.89   433.9    4.8      35.624
2014    9        4    16  19    3.89   433.7    4.8      35.597
2014    9        4    16  25    3.89   433.5    4.8      35.571
2014    9        4    16  30    3.89   433.4    4.8      35.544
2014    9        4    16  36    3.89   433.2    4.8      35.517
2014    9        4    16  42    3.89   433.0    4.8      35.490
2014    9        4    16  47    3.89   432.8    4.8      35.464
2014    9        4    16  53    3.89   432.6    4.8      35.437
2014    9        4    16  59    3.89   432.5    4.8      35.410
2014    9        4    17   4    3.89   432.3    4.8      35.383
2014    9        4    17  10    3.89   432.1    4.8      35.356
2014    9        4    17  16    3.89   431.9    4.8      35.330
2014    9        4    17  21    3.89   431.7    4.8      35.303
2014    9        4    17  27    3.89   431.6    4.8      35.276
2014    9        4    17  33    3.89   431.4    4.8      35.249
2014    9        4    17  38    3.89   431.2    4.8      35.222
2014    9        4    17  44    3.89   431.0    4.8      35.195
2014    9        4    17  49    3.89   430.8    4.8      35.168
2014    9        4    17  55    3.89   430.6    4.8      35.141
2014    9        4    18   1    3.89   430.5    4.8      35.114
2014    9        4    18   6    3.89   430.3    4.8      35.088
2014    9        4    18  12    3.89   430.1    4.8      35.061
2014    9        4    18  18    3.89   429.9    4.9      35.034
2014    9        4    18  23    3.89   429.7    4.9      35.007
2014    9        4    18  29    3.89   429.6    4.9      34.980
2014    9        4    18  35    3.89   429.4    4.9      34.954
2014    9        4    18  40    3.89   429.2    4.9      34.927
2014    9        4    18  46    3.89   429.0    4.9      34.900
2014    9        4    18  52    3.89   428.8    4.9      34.874
2014    9        4    18  57    3.89   428.7    4.9      34.847
2014    9        4    19   3    3.89   428.5    4.9      34.820
2014    9        4    19   8    3.89   428.3    4.9      34.794
2014    9        4    19  14    3.89   428.1    4.9      34.767
2014    9        4    19  20    3.89   427.9    4.9      34.741
2014    9        4    19  25    3.89   427.8    4.9      34.714
2014    9        4    19  31    3.89   427.6    4.9      34.688
2014    9        4    19  37    3.89   427.4    4.9      34.661
2014    9        4    19  42    3.89   427.2    4.9      34.635
2014    9        4    19  48    3.89   427.0    4.9      34.609
2014    9        4    19  54    3.89   426.9    4.9      34.582
2014    9        4    19  59    3.89   426.7    4.9      34.556
2014    9        4    20   5    3.89   426.5    4.9      34.530
2014    9        4    20  11    3.89   426.3    4.9      34.504
2014    9        4    20  16    3.89   426.1    4.9      34.478
2014    9        4    20  22    3.89   426.0    4.9      34.451
2014    9        4    20  27    3.89   425.8    4.9      34.425
2014    9        4    20  33    3.89   425.6    4.9      34.399
2014    9        4    20  39    3.89   425.4    4.9      34.373
2014    9        4    20  44    3.89   425.2    5.0      34.347
2014    9        4    20  50    3.89   425.1    5.0      34.321
2014    9        4    20  56    3.89   424.9    5.0      34.295
2014    9        4    21   1    3.89   424.7    5.0      34.269
2014    9        4    21   7    3.89   424.5    5.0      34.243
2014    9        4    21  13    3.89   424.3    5.0      34.217
2014    9        4    21  18    3.89   424.2    5.0      34.192
2014    9        4    21  24    3.89   424.0    5.0      34.166
2014    9        4    21  29    3.89   423.8    5.0      34.140
2014    9        4    21  35    3.89   423.6    5.0      34.114
2014    9        4    21  41    3.89   423.4    5.0      34.089
2014    9        4    21  46    3.89   423.3    5.0      34.063
2014    9        4    21  52    3.90   423.1    5.0      34.037
2014    9        4    21  58    3.90   422.9    5.0      34.012
2014    9        4    22   3    3.90   422.7    5.0      33.986
2014    9        4    22   9    3.90   422.5    5.0      33.961
2014    9        4    22  15    3.90   422.4    5.0      33.935
2014    9        4    22  20    3.90   422.2    5.0      33.910
2014    9        4    22  26    3.90   422.0    5.0      33.884
2014    9        4    22  32    3.90   421.8    5.0      33.859
2014    9        4    22  37    3.90   421.6    5.0      33.834
2014    9        4    22  43    3.90   421.5    5.0      33.808
2014    9        4    22  48    3.90   421.3    5.0      33.783
2014    9        4    22  54    3.90   421.1    5.0      33.758
2014    9        4    23   0    3.90   420.9    5.0      33.733
2014    9        4    23   5    3.90   420.8    5.1      33.708
2014    9        4    23  11    3.90   420.6    5.1      33.683
2014    9        4    23  17    3.90   420.4    5.1      33.658
2014    9        4    23  22    3.90   420.2    5.1      33.634
2014    9        4    23  28    3.90   420.0    5.1      33.609
2014    9        4    23  34    3.90   419.9    5.1      33.584
2014    9        4    23  39    3.90   419.7    5.1      33.560
2014    9        4    23  45    3.90   419.5    5.1      33.535
2014    9        4    23  51    3.90   419.3    5.1      33.511
2014    9        4    23  56    3.90   419.1    5.1      33.487
2014    9        5     0   2    3.90   419.0    5.1      33.462
2014    9        5     0   7    3.90   418.8    5.1      33.438
2014    9        5     0  13    3.90   418.6    5.1      33.414
2014    9        5     0  19    3.90   418.4    5.1      33.390
2014    9        5     0  24    3.90   418.2    5.1      33.366
2014    9        5     0  30    3.90   418.1    5.1      33.343
2014    9        5     0  36    3.90   417.9    5.1      33.319
2014    9        5     0  41    3.90   417.7    5.1      33.295
2014    9        5     0  47    3.90   417.5    5.1      33.272
2014    9        5     0  53    3.91   417.3    5.1      33.248
2014    9        5     0  58    3.91   417.2    5.1      33.225
2014    9        5     1   4    3.91   417.0    5.1      33.201
2014    9        5     1   9    3.91   416.8    5.1      33.178
2014    9        5     1  15    3.91   416.6    5.1      33.155
2014    9        5     1  21    3.91   416.5    5.1      33.132
2014    9        5     1  26    3.91   416.3    5.2      33.109
2014    9        5     1  32    3.91   416.1    5.2      33.086
2014    9        5     1  38    3.91   415.9    5.2      33.063
2014    9        5     1  43    3.91   415.7    5.2      33.040
2014    9        5     1  49    3.91   415.6    5.2      33.017
2014    9        5     1  55    3.91   415.4    5.2      32.995
2014    9        5     2   0    3.91   415.2    5.2      32.972
2014    9        5     2   6    3.91   415.0    5.2      32.949
2014    9        5     2  12    3.91   414.8    5.2      32.927
2014    9        5     2  17    3.91   414.7    5.2      32.904
2014    9        5     2  23    3.91   414.5    5.2      32.882
2014    9        5     2  28    3.91   414.3    5.2      32.859
2014    9        5     2  34    3.91   414.1    5.2      32.837
2014    9        5     2  40    3.91   414.0    5.2      32.815
2014    9        5     2  45    3.91   413.8    5.2      32.792
2014    9        5     2  51    3.92   413.6    5.2      32.770
2014    9        5     2  57    3.92   413.4    5.2      32.748
2014    9        5     3   2    3.92   413.2    5.2      32.726
2014    9        5     3   8    3.92   413.1    5.2      32.704
2014    9        5     3  14    3.92   412.9    5.2      32.682
2014    9        5     3  19    3.92   412.7    5.2      32.660
2014    9        5     3  25    3.92   412.5    5.2      32.638
2014    9        5     3  31    3.92   412.3    5.2      32.616
2014    9        5     3  36    3.92   412.2    5.3      32.595
2014    9        5     3  42    3.92   412.0    5.3      32.573
2014    9        5     3  47    3.92   411.8    5.3      32.552
2014    9        5     3  53    3.92   411.6    5.3      32.530
2014    9        5     3  59    3.92   411.5    5.3      32.509
2014    9        5     4   4    3.92   411.3    5.3      32.488
2014    9        5     4  10    3.92   411.1    5.3      32.467
2014    9        5     4  16    3.92   410.9    5.3      32.446
2014    9        5     4  21    3.92   410.7    5.3      32.425
2014    9        5     4  27    3.92   410.6    5.3      32.404
2014    9        5     4  33    3.93   410.4    5.3      32.383
2014    9        5     4  38    3.93   410.2    5.3      32.363
2014    9        5     4  44    3.93   410.0    5.3      32.342
2014    9        5     4  50    3.93   409.9    5.3      32.322
2014    9        5     4  55    3.93   409.7    5.3      32.301
2014    9        5     5   1    3.93   409.5    5.3      32.281
2014    9        5     5   6    3.93   409.3    5.3      32.261
2014    9        5     5  12    3.93   409.2    5.3      32.241
2014    9        5     5  18    3.93   409.0    5.3      32.221
2014    9        5     5  23    3.93   408.8    5.3      32.202
2014    9        5     5  29    3.93   408.6    5.4      32.182
2014    9        5     5  35    3.93   408.5    5.4      32.162
2014    9        5     5  40    3.93   408.3    5.4      32.142
2014    9        5     5  46    3.93   408.1    5.4      32.123
2014    9        5     5  52    3.94   408.0    5.4      32.103
2014    9        5     5  57    3.94   407.8    5.4      32.084
2014    9        5     6   3    3.94   407.6    5.4      32.065
2014    9        5     6   9    3.94   407.4    5.4      32.045
2014    9        5     6  14    3.94   407.3    5.4      32.026
2014    9        5     6  20    3.94   407.1    5.4      32.007
2014    9        5     6  25    3.94   406.9    5.4      31.988
2014    9        5     6  31    3.94   406.8    5.4      31.968
2014    9        5     6  37    3.94   406.6    5.4      31.949
2014    9        5     6  42    3.94   406.4    5.4      31.930
2014    9        5     6  48    3.94   406.2    5.4      31.911
2014    9        5     6  54    3.94   406.1    5.4      31.892
2014    9        5     6  59    3.95   405.9    5.4      31.873
2014    9        5     7   5    3.95   405.7    5.4      31.854
2014    9        5     7  11    3.95   405.6    5.4      31.835
2014    9        5     7  16    3.95   405.4    5.4      31.817
2014    9        5     7  22    3.95   405.2    5.5      31.798
2014    9        5     7  27    3.95   405.1    5.5      31.779
2014    9        5     7  33    3.95   404.9    5.5      31.761
2014    9        5     7  39    3.95   404.7    5.5      31.742
2014    9        5     7  44    3.95   404.6    5.5      31.723
2014    9        5     7  50    3.95   404.4    5.5      31.705
2014    9        5     7  56    3.95   404.2    5.5      31.686
2014    9        5     8   1    3.95   404.1    5.5      31.668
2014    9        5     8   7    3.96   403.9    5.5      31.650
2014    9        5     8  13    3.96   403.7    5.5      31.631
2014    9        5     8  18    3.96   403.5    5.5      31.613
2014    9        5     8  24    3.96   403.4    5.5      31.595
2014    9        5     8  30    3.96   403.2    5.5      31.577
2014    9        5     8  35    3.96   403.0    5.5      31.559
2014    9        5     8  41    3.96   402.9    5.5      31.541
2014    9        5     8  46    3.96   402.7    5.5      31.523
2014    9        5     8  52    3.96   402.6    5.5      31.505
2014    9        5     8  58    3.96   402.4    5.5      31.487
2014    9        5     9   3    3.97   402.2    5.5      31.469
2014    9        5     9   9    3.97   402.1    5.5      31.452
2014    9        5     9  15    3.97   401.9    5.5      31.434
2014    9        5     9  20    3.97   401.7    5.5      31.416
2014    9        5     9  26    3.97   401.6    5.6      31.398
2014    9        5     9  32    3.97   401.4    5.6      31.381
2014    9        5     9  37    3.97   401.2    5.6      31.363
2014    9        5     9  43    3.97   401.1    5.6      31.346
2014    9        5     9  49    3.97   400.9    5.6      31.328
2014    9        5     9  54    3.97   400.7    5.6      31.311
2014    9        5    10   0    3.98   400.6    5.6      31.293
2014    9        5    10   5    3.98   400.4    5.6      31.276
2014    9        5    10  11    3.98   400.3    5.6      31.258
2014    9        5    10  17    3.98   400.1    5.6      31.241
2014    9        5    10  22    3.98   399.9    5.6      31.224
2014    9        5    10  28    3.98   399.8    5.6      31.206
2014    9        5    10  34    3.98   399.6    5.6      31.189
2014    9        5    10  39    3.98   399.4    5.6      31.172
2014    9        5    10  45    3.98   399.3    5.6      31.155
2014    9        5    10  51    3.99   399.1    5.6      31.139
2014    9        5    10  56    3.99   398.9    5.6      31.122
2014    9        5    11   2    3.99   398.8    5.6      31.105
2014    9        5    11   8    3.99   398.6    5.6      31.088
2014    9        5    11  13    3.99   398.5    5.6      31.072
2014    9        5    11  19    3.99   398.3    5.6      31.056
2014    9        5    11  24    3.99   398.1    5.7      31.039
2014    9        5    11  30    3.99   398.0    5.7      31.023
2014    9        5    11  36    3.99   397.8    5.7      31.007
2014    9        5    11  41    4.00   397.7    5.7      30.992
2014    9        5    11  47    4.00   397.5    5.7      30.976
2014    9        5    11  53    4.00   397.3    5.7      30.960
2014    9        5    11  58    4.00   397.2    5.7      30.945
2014    9        5    12   4    4.00   397.0    5.7      30.930
2014    9        5    12  10    4.00   396.9    5.7      30.915
2014    9        5    12  15    4.00   396.7    5.7      30.900
2014    9        5    12  21    4.00   396.5    5.7      30.886
2014    9        5    12  26    4.01   396.4    5.7      30.871
2014    9        5    12  32    4.01   396.2    5.7      30.857
2014    9        5    12  38    4.01   396.1    5.7      30.843
2014    9        5    12  43    4.01   395.9    5.7      30.829
2014    9        5    12  49    4.01   395.8    5.7      30.815
2014    9        5    12  55    4.01   395.6    5.7      30.801
2014    9        5    13   0    4.01   395.4    5.7      30.788
2014    9        5    13   6    4.01   395.3    5.7      30.774
2014    9        5    13  12    4.02   395.1    5.8      30.761
2014    9        5    13  17    4.02   395.0    5.8      30.748
2014    9        5    13  23    4.02   394.8    5.8      30.735
2014    9        5    13  29    4.02   394.7    5.8      30.722
2014    9        5    13  34    4.02   394.5    5.8      30.710
2014    9        5    13  40    4.02   394.4    5.8      30.697
2014    9        5    13  45    4.02   394.2    5.8      30.685
2014    9        5    13  51    4.02   394.1    5.8      30.673
2014    9        5    13  57    4.03   393.9    5.8      30.661
2014    9        5    14   2    4.03   393.7    5.8      30.649
2014    9        5    14   8    4.03   393.6    5.8      30.637
2014    9        5    14  14    4.03   393.4    5.8      30.626
2014    9        5    14  19    4.03   393.3    5.8      30.614
2014    9        5    14  25    4.03   393.1    5.8      30.603
2014    9        5    14  31    4.03   393.0    5.8      30.591
2014    9        5    14  36    4.04   392.8    5.8      30.580
2014    9        5    14  42    4.04   392.7    5.8      30.569
2014    9        5    14  48    4.04   392.5    5.9      30.558
2014    9        5    14  53    4.04   392.4    5.9      30.547
2014    9        5    14  59    4.04   392.2    5.9      30.536
2014    9        5    15   4    4.04   392.1    5.9      30.526
2014    9        5    15  10    4.05   391.9    5.9      30.515
2014    9        5    15  16    4.05   391.8    5.9      30.504
2014    9        5    15  21    4.05   391.6    5.9      30.494
2014    9        5    15  27    4.05   391.5    5.9      30.483
2014    9        5    15  33    4.05   391.4    5.9      30.473
2014    9        5    15  38    4.05   391.2    5.9      30.463
2014    9        5    15  44    4.05   391.1    5.9      30.453
2014    9        5    15  50    4.06   390.9    5.9      30.443
2014    9        5    15  55    4.06   390.8    5.9      30.433
2014    9        5    16   1    4.06   390.6    5.9      30.423
2014    9        5    16   7    4.06   390.5    5.9      30.414
2014    9        5    16  12    4.06   390.3    5.9      30.404
2014    9        5    16  18    4.06   390.2    5.9      30.394
2014    9        5    16  23    4.07   390.1    5.9      30.384
2014    9        5    16  29    4.07   389.9    6.0      30.375
2014    9        5    16  35    4.07   389.8    6.0      30.365
2014    9        5    16  40    4.07   389.6    6.0      30.355
2014    9        5    16  46    4.07   389.5    6.0      30.346
2014    9        5    16  52    4.07   389.3    6.0      30.336
2014    9        5    16  57    4.08   389.2    6.0      30.326
2014    9        5    17   3    4.08   389.1    6.0      30.316
2014    9        5    17   9    4.08   388.9    6.0      30.307
2014    9        5    17  14    4.08   388.8    6.0      30.297
2014    9        5    17  20    4.08   388.7    6.0      30.287
2014    9        5    17  25    4.08   388.5    6.0      30.277
2014    9        5    17  31    4.09   388.4    6.0      30.267
2014    9        5    17  37    4.09   388.3    6.0      30.257
2014    9        5    17  42    4.09   388.1    6.0      30.247
2014    9        5    17  48    4.09   388.0    6.0      30.237
2014    9        5    17  54    4.09   387.8    6.0      30.227
2014    9        5    17  59    4.10   387.7    6.0      30.217
2014    9        5    18   5    4.10   387.6    6.0      30.207
2014    9        5    18  11    4.10   387.4    6.0      30.197
2014    9        5    18  16    4.10   387.3    6.1      30.187
2014    9        5    18  22    4.10   387.2    6.1      30.177
2014    9        5    18  28    4.10   387.1    6.1      30.166
2014    9        5    18  33    4.11   386.9    6.1      30.156
2014    9        5    18  39    4.11   386.8    6.1      30.145
2014    9        5    18  44    4.11   386.7    6.1      30.135
2014    9        5    18  50    4.11   386.5    6.1      30.124
2014    9        5    18  56    4.11   386.4    6.1      30.114
2014    9        5    19   1    4.11   386.3    6.1      30.103
2014    9        5    19   7    4.12   386.1    6.1      30.092
2014    9        5    19  13    4.12   386.0    6.1      30.081
2014    9        5    19  18    4.12   385.9    6.1      30.070
2014    9        5    19  24    4.12   385.7    6.1      30.059
2014    9        5    19  30    4.12   385.6    6.1      30.048
2014    9        5    19  35    4.12   385.5    6.1      30.037
2014    9        5    19  41    4.13   385.3    6.1      30.026
2014    9        5    19  47    4.13   385.2    6.1      30.015
2014    9        5    19  52    4.13   385.1    6.1      30.005
2014    9        5    19  58    4.13   385.0    6.1      29.994
2014    9        5    20   3    4.13   384.8    6.1      29.983
2014    9        5    20   9    4.13   384.7    6.1      29.972
2014    9        5    20  15    4.13   384.6    6.2      29.961
2014    9        5    20  20    4.14   384.4    6.2      29.951
2014    9        5    20  26    4.14   384.3    6.2      29.940
2014    9        5    20  32    4.14   384.2    6.2      29.930
2014    9        5    20  37    4.14   384.0    6.2      29.919
2014    9        5    20  43    4.14   383.9    6.2      29.909
2014    9        5    20  49    4.14   383.8    6.2      29.899
2014    9        5    20  54    4.15   383.6    6.2      29.890
2014    9        5    21   0    4.15   383.5    6.2      29.880
2014    9        5    21   6    4.15   383.4    6.2      29.871
2014    9        5    21  11    4.15   383.3    6.2      29.862
2014    9        5    21  17    4.15   383.1    6.2      29.853
2014    9        5    21  22    4.16   383.0    6.2      29.845
2014    9        5    21  28    4.16   382.9    6.2      29.836
2014    9        5    21  34    4.16   382.7    6.2      29.828
2014    9        5    21  39    4.16   382.6    6.2      29.821
2014    9        5    21  45    4.16   382.5    6.2      29.814
2014    9        5    21  51    4.16   382.4    6.2      29.806
2014    9        5    21  56    4.17   382.2    6.2      29.800
2014    9        5    22   2    4.17   382.1    6.3      29.793
2014    9        5    22   8    4.17   382.0    6.3      29.787
2014    9        5    22  13    4.17   381.9    6.3      29.781
2014    9        5    22  19    4.17   381.7    6.3      29.776
2014    9        5    22  24    4.18   381.6    6.3      29.771
2014    9        5    22  30    4.18   381.5    6.3      29.766
2014    9        5    22  36    4.18   381.4    6.3      29.762
2014    9        5    22  41    4.18   381.2    6.3      29.758
2014    9        5    22  47    4.18   381.1    6.3      29.754
2014    9        5    22  53    4.19   381.0    6.3      29.751
2014    9        5    22  58    4.19   380.9    6.3      29.747
2014    9        5    23   4    4.19   380.8    6.3      29.745
2014    9        5    23  10    4.19   380.6    6.3      29.742
2014    9        5    23  15    4.20   380.5    6.3      29.739
2014    9        5    23  21    4.20   380.4    6.3      29.736
2014    9        5    23  27    4.20   380.3    6.4      29.734
2014    9        5    23  32    4.20   380.2    6.4      29.731
2014    9        5    23  38    4.20   380.1    6.4      29.729
2014    9        5    23  43    4.21   379.9    6.4      29.727
2014    9        5    23  49    4.21   379.8    6.4      29.725
2014    9        5    23  55    4.21   379.7    6.4      29.723
2014    9        6     0   0    4.21   379.6    6.4      29.721
2014    9        6     0   6    4.22   379.5    6.4      29.719
2014    9        6     0  12    4.22   379.4    6.4      29.717
2014    9        6     0  17    4.22   379.3    6.4      29.716
2014    9        6     0  23    4.22   379.1    6.4      29.714
2014    9        6     0  29    4.22   379.0    6.4      29.713
2014    9        6     0  34    4.23   378.9    6.4      29.711
2014    9        6     0  40    4.23   378.8    6.4      29.709
2014    9        6     0  46    4.23   378.7    6.4      29.708
2014    9        6     0  51    4.23   378.6    6.4      29.706
2014    9        6     0  57    4.24   378.5    6.5      29.705
2014    9        6     1   2    4.24   378.4    6.5      29.703
2014    9        6     1   8    4.24   378.3    6.5      29.702
2014    9        6     1  14    4.24   378.2    6.5      29.700
2014    9        6     1  19    4.24   378.1    6.5      29.699
2014    9        6     1  25    4.25   377.9    6.5      29.697
2014    9        6     1  31    4.25   377.8    6.5      29.696
2014    9        6     1  36    4.25   377.7    6.5      29.694
2014    9        6     1  42    4.25   377.6    6.5      29.693
2014    9        6     1  48    4.26   377.5    6.5      29.691
2014    9        6     1  53    4.26   377.4    6.5      29.689
2014    9        6     1  59    4.26   377.3    6.5      29.688
2014    9        6     2   5    4.26   377.2    6.5      29.686
2014    9        6     2  10    4.27   377.1    6.5      29.684
2014    9        6     2  16    4.27   377.0    6.5      29.682
2014    9        6     2  21    4.27   376.9    6.5      29.680
2014    9        6     2  27    4.27   376.8    6.5      29.678
2014    9        6     2  33    4.27   376.7    6.5      29.676
2014    9        6     2  38    4.28   376.6    6.6      29.673
2014    9        6     2  44    4.28   376.5    6.6      29.671
2014    9        6     2  50    4.28   376.4    6.6      29.668
2014    9        6     2  55    4.28   376.3    6.6      29.666
2014    9        6     3   1    4.29   376.2    6.6      29.663
2014    9        6     3   7    4.29   376.1    6.6      29.660
2014    9        6     3  12    4.29   376.0    6.6      29.657
2014    9        6     3  18    4.29   375.9    6.6      29.654
2014    9        6     3  23    4.29   375.8    6.6      29.651
2014    9        6     3  29    4.30   375.7    6.6      29.648
2014    9        6     3  35    4.30   375.6    6.6      29.645
2014    9        6     3  40    4.30   375.5    6.6      29.642
2014    9        6     3  46    4.30   375.4    6.6      29.638
2014    9        6     3  52    4.31   375.3    6.6      29.635
2014    9        6     3  57    4.31   375.2    6.6      29.631
2014    9        6     4   3    4.31   375.1    6.6      29.628
2014    9        6     4   9    4.31   375.0    6.6      29.625
2014    9        6     4  14    4.31   374.9    6.6      29.621
2014    9        6     4  20    4.32   374.8    6.6      29.618
2014    9        6     4  26    4.32   374.7    6.7      29.614
2014    9        6     4  31    4.32   374.6    6.7      29.611
2014    9        6     4  37    4.32   374.5    6.7      29.608
2014    9        6     4  42    4.33   374.4    6.7      29.605
2014    9        6     4  48    4.33   374.3    6.7      29.602
2014    9        6     4  54    4.33   374.3    6.7      29.599
2014    9        6     4  59    4.33   374.2    6.7      29.596
2014    9        6     5   5    4.33   374.1    6.7      29.593
2014    9        6     5  11    4.34   374.0    6.7      29.590
2014    9        6     5  16    4.34   373.9    6.7      29.588
2014    9        6     5  22    4.34   373.8    6.7      29.585
2014    9        6     5  28    4.34   373.7    6.7      29.583
2014    9        6     5  33    4.35   373.6    6.7      29.581
2014    9        6     5  39    4.35   373.5    6.7      29.579
2014    9        6     5  45    4.35   373.4    6.7      29.578
2014    9        6     5  50    4.35   373.3    6.7      29.576
2014    9        6     5  56    4.35   373.2    6.7      29.575
2014    9        6     6   1    4.36   373.1    6.7      29.574
2014    9        6     6   7    4.36   373.0    6.7      29.573
2014    9        6     6  13    4.36   372.9    6.8      29.573
2014    9        6     6  18    4.36   372.8    6.8      29.572
2014    9        6     6  24    4.37   372.7    6.8      29.572
2014    9        6     6  30    4.37   372.6    6.8      29.572
2014    9        6     6  35    4.37   372.6    6.8      29.572
2014    9        6     6  41    4.37   372.5    6.8      29.572
2014    9        6     6  47    4.38   372.4    6.8      29.573
2014    9        6     6  52    4.38   372.3    6.8      29.574
2014    9        6     6  58    4.38   372.2    6.8      29.575
2014    9        6     7   3    4.38   372.1    6.8      29.576
2014    9        6     7   9    4.39   372.0    6.8      29.577
2014    9        6     7  15    4.39   371.9    6.8      29.579
2014    9        6     7  20    4.39   371.8    6.8      29.580
2014    9        6     7  26    4.39   371.7    6.8      29.582
2014    9        6     7  32    4.40   371.7    6.8      29.585
2014    9        6     7  37    4.40   371.6    6.8      29.587
2014    9        6     7  43    4.40   371.5    6.9      29.590
2014    9        6     7  49    4.41   371.4    6.9      29.593
2014    9        6     7  54    4.41   371.3    6.9      29.596
2014    9        6     8   0    4.41   371.2    6.9      29.599
2014    9        6     8   6    4.41   371.1    6.9      29.602
2014    9        6     8  11    4.42   371.1    6.9      29.605
2014    9        6     8  17    4.42   371.0    6.9      29.609
2014    9        6     8  22    4.42   370.9    6.9      29.613
2014    9        6     8  28    4.42   370.8    6.9      29.616
2014    9        6     8  34    4.43   370.7    6.9      29.620
2014    9        6     8  39    4.43   370.6    6.9      29.624
2014    9        6     8  45    4.43   370.5    6.9      29.628
2014    9        6     8  51    4.44   370.5    6.9      29.632
2014    9        6     8  56    4.44   370.4    6.9      29.636
2014    9        6     9   2    4.44   370.3    6.9      29.640
2014    9        6     9   8    4.44   370.2    6.9      29.644
2014    9        6     9  13    4.45   370.1    7.0      29.648
2014    9        6     9  19    4.45   370.1    7.0      29.653
2014    9        6     9  25    4.45   370.0    7.0      29.657
2014    9        6     9  30    4.46   369.9    7.0      29.662
2014    9        6     9  36    4.46   369.8    7.0      29.666
2014    9        6     9  41    4.46   369.7    7.0      29.671
2014    9        6     9  47    4.46   369.7    7.0      29.675
2014    9        6     9  53    4.47   369.6    7.0      29.680
2014    9        6     9  58    4.47   369.5    7.0      29.684
2014    9        6    10   4    4.47   369.4    7.0      29.689
2014    9        6    10  10    4.48   369.4    7.0      29.694
2014    9        6    10  15    4.48   369.3    7.0      29.698
2014    9        6    10  21    4.48   369.2    7.0      29.703
2014    9        6    10  27    4.48   369.1    7.0      29.708
2014    9        6    10  32    4.49   369.1    7.0      29.712
2014    9        6    10  38    4.49   369.0    7.0      29.717
2014    9        6    10  44    4.49   368.9    7.1      29.722
2014    9        6    10  49    4.50   368.8    7.1      29.727
2014    9        6    10  55    4.50   368.8    7.1      29.732
2014    9        6    11   0    4.50   368.7    7.1      29.736
2014    9        6    11   6    4.50   368.6    7.1      29.741
2014    9        6    11  12    4.51   368.5    7.1      29.746
2014    9        6    11  17    4.51   368.5    7.1      29.751
2014    9        6    11  23    4.51   368.4    7.1      29.756
2014    9        6    11  29    4.52   368.3    7.1      29.761
2014    9        6    11  34    4.52   368.3    7.1      29.766
2014    9        6    11  40    4.52   368.2    7.1      29.771
2014    9        6    11  46    4.52   368.1    7.1      29.777
2014    9        6    11  51    4.53   368.0    7.1      29.782
2014    9        6    11  57    4.53   368.0    7.1      29.787
2014    9        6    12   2    4.53   367.9    7.1      29.793
2014    9        6    12   8    4.53   367.8    7.1      29.798
2014    9        6    12  14    4.54   367.8    7.1      29.804
2014    9        6    12  19    4.54   367.7    7.2      29.809
2014    9        6    12  25    4.54   367.6    7.2      29.815
2014    9        6    12  31    4.55   367.6    7.2      29.821
2014    9        6    12  36    4.55   367.5    7.2      29.827
2014    9        6    12  42    4.55   367.4    7.2      29.833
2014    9        6    12  48    4.56   367.4    7.2      29.839
2014    9        6    12  53    4.56   367.3    7.2      29.845
2014    9        6    12  59    4.56   367.2    7.2      29.852
2014    9        6    13   5    4.56   367.1    7.2      29.858
2014    9        6    13  10    4.57   367.1    7.2      29.865
2014    9        6    13  16    4.57   367.0    7.2      29.872
2014    9        6    13  21    4.57   366.9    7.2      29.879
2014    9        6    13  27    4.58   366.9    7.2      29.886
2014    9        6    13  33    4.58   366.8    7.2      29.893
2014    9        6    13  38    4.58   366.8    7.2      29.900
2014    9        6    13  44    4.58   366.7    7.2      29.908
2014    9        6    13  50    4.59   366.6    7.3      29.915
2014    9        6    13  55    4.59   366.6    7.3      29.923
2014    9        6    14   1    4.59   366.5    7.3      29.931
2014    9        6    14   7    4.60   366.4    7.3      29.939
2014    9        6    14  12    4.60   366.4    7.3      29.948
2014    9        6    14  18    4.60   366.3    7.3      29.956
2014    9        6    14  24    4.61   366.2    7.3      29.965
2014    9        6    14  29    4.61   366.2    7.3      29.973
2014    9        6    14  35    4.61   366.1    7.3      29.982
2014    9        6    14  40    4.62   366.1    7.3      29.991
2014    9        6    14  46    4.62   366.0    7.3      30.001
2014    9        6    14  52    4.62   365.9    7.3      30.010
2014    9        6    14  57    4.63   365.9    7.3      30.020
2014    9        6    15   3    4.63   365.8    7.3      30.030
2014    9        6    15   9    4.63   365.8    7.3      30.040
2014    9        6    15  14    4.64   365.7    7.4      30.050
2014    9        6    15  20    4.64   365.7    7.4      30.060
2014    9        6    15  26    4.64   365.6    7.4      30.070
2014    9        6    15  31    4.65   365.6    7.4      30.081
2014    9        6    15  37    4.65   365.5    7.4      30.091
2014    9        6    15  42    4.65   365.4    7.4      30.102
2014    9        6    15  48    4.66   365.4    7.4      30.113
2014    9        6    15  54    4.66   365.3    7.4      30.124
2014    9        6    15  59    4.66   365.3    7.4      30.134
2014    9        6    16   5    4.67   365.2    7.4      30.145
2014    9        6    16  11    4.67   365.2    7.4      30.156
2014    9        6    16  16    4.67   365.1    7.4      30.168
2014    9        6    16  22    4.68   365.1    7.4      30.179
2014    9        6    16  28    4.68   365.0    7.4      30.190
2014    9        6    16  33    4.68   365.0    7.4      30.201
2014    9        6    16  39    4.69   364.9    7.5      30.213
2014    9        6    16  45    4.69   364.9    7.5      30.224
2014    9        6    16  50    4.69   364.8    7.5      30.235
2014    9        6    16  56    4.70   364.8    7.5      30.247
2014    9        6    17   1    4.70   364.7    7.5      30.259
2014    9        6    17   7    4.70   364.7    7.5      30.270
2014    9        6    17  13    4.71   364.6    7.5      30.282
2014    9        6    17  18    4.71   364.6    7.5      30.294
2014    9        6    17  24    4.71   364.5    7.5      30.305
2014    9        6    17  30    4.72   364.5    7.5      30.317
2014    9        6    17  35    4.72   364.4    7.5      30.329
2014    9        6    17  41    4.72   364.4    7.5      30.342
2014    9        6    17  47    4.73   364.3    7.5      30.354
2014    9        6    17  52    4.73   364.3    7.5      30.366
2014    9        6    17  58    4.73   364.2    7.5      30.379
2014    9        6    18   4    4.74   364.2    7.5      30.391
2014    9        6    18   9    4.74   364.1    7.6      30.404
2014    9        6    18  15    4.74   364.1    7.6      30.417
2014    9        6    18  20    4.75   364.1    7.6      30.430
2014    9        6    18  26    4.75   364.0    7.6      30.443
2014    9        6    18  32    4.75   364.0    7.6      30.456
2014    9        6    18  37    4.76   363.9    7.6      30.469
2014    9        6    18  43    4.76   363.9    7.6      30.483
2014    9        6    18  49    4.76   363.8    7.6      30.496
2014    9        6    18  54    4.77   363.8    7.6      30.510
2014    9        6    19   0    4.77   363.7    7.6      30.524
2014    9        6    19   6    4.77   363.7    7.6      30.538
2014    9        6    19  11    4.78   363.7    7.6      30.553
2014    9        6    19  17    4.78   363.6    7.6      30.567
2014    9        6    19  23    4.79   363.6    7.6      30.582
2014    9        6    19  28    4.79   363.5    7.6      30.597
2014    9        6    19  34    4.79   363.5    7.7      30.612
2014    9        6    19  39    4.80   363.5    7.7      30.627
2014    9        6    19  45    4.80   363.4    7.7      30.642
2014    9        6    19  51    4.80   363.4    7.7      30.658
2014    9        6    19  56    4.81   363.3    7.7      30.674
2014    9        6    20   2    4.81   363.3    7.7      30.690
2014    9        6    20   8    4.81   363.3    7.7      30.706
2014    9        6    20  13    4.82   363.2    7.7      30.722
2014    9        6    20  19    4.82   363.2    7.7      30.738
2014    9        6    20  25    4.82   363.2    7.7      30.755
2014    9        6    20  30    4.83   363.1    7.7      30.772
2014    9        6    20  36    4.83   363.1    7.7      30.789
2014    9        6    20  41    4.84   363.1    7.7      30.806
2014    9        6    20  47    4.84   363.0    7.7      30.823
2014    9        6    20  53    4.84   363.0    7.7      30.841
2014    9        6    20  58    4.85   363.0    7.8      30.858
2014    9        6    21   4    4.85   362.9    7.8      30.876
2014    9        6    21  10    4.85   362.9    7.8      30.894
2014    9        6    21  15    4.86   362.9    7.8      30.912
2014    9        6    21  21    4.86   362.8    7.8      30.931
2014    9        6    21  27    4.87   362.8    7.8      30.949
2014    9        6    21  32    4.87   362.8    7.8      30.968
2014    9        6    21  38    4.87   362.7    7.8      30.986
2014    9        6    21  44    4.88   362.7    7.8      31.005
2014    9        6    21  49    4.88   362.7    7.8      31.024
2014    9        6    21  55    4.88   362.7    7.8      31.043
2014    9        6    22   0    4.89   362.6    7.8      31.062
2014    9        6    22   6    4.89   362.6    7.8      31.081
2014    9        6    22  12    4.90   362.6    7.9      31.101
2014    9        6    22  17    4.90   362.6    7.9      31.121
2014    9        6    22  23    4.90   362.5    7.9      31.141
2014    9        6    22  29    4.91   362.5    7.9      31.161
2014    9        6    22  34    4.91   362.5    7.9      31.181
2014    9        6    22  40    4.91   362.5    7.9      31.201
2014    9        6    22  46    4.92   362.4    7.9      31.221
2014    9        6    22  51    4.92   362.4    7.9      31.242
2014    9        6    22  57    4.93   362.4    7.9      31.262
2014    9        6    23   3    4.93   362.4    7.9      31.283
2014    9        6    23   8    4.93   362.4    7.9      31.304
2014    9        6    23  14    4.94   362.3    7.9      31.325
2014    9        6    23  19    4.94   362.3    7.9      31.345
2014    9        6    23  25    4.94   362.3    7.9      31.366
2014    9        6    23  31    4.95   362.3    8.0      31.387
2014    9        6    23  36    4.95   362.2    8.0      31.407
2014    9        6    23  42    4.96   362.2    8.0      31.428
2014    9        6    23  48    4.96   362.2    8.0      31.449
2014    9        6    23  53    4.96   362.2    8.0      31.469
2014    9        6    23  59    4.97   362.2    8.0      31.490
2014    9        7     0   5    4.97   362.1    8.0      31.510
2014    9        7     0  10    4.97   362.1    8.0      31.530
2014    9        7     0  16    4.98   362.1    8.0      31.551
2014    9        7     0  22    4.98   362.1    8.0      31.571
2014    9        7     0  27    4.98   362.0    8.0      31.591
2014    9        7     0  33    4.99   362.0    8.0      31.612
2014    9        7     0  38    4.99   362.0    8.0      31.632
2014    9        7     0  44    5.00   362.0    8.0      31.652
2014    9        7     0  50    5.00   362.0    8.0      31.672
2014    9        7     0  55    5.00   361.9    8.0      31.692
2014    9        7     1   1    5.01   361.9    8.1      31.712
2014    9        7     1   7    5.01   361.9    8.1      31.733
2014    9        7     1  12    5.01   361.9    8.1      31.753
2014    9        7     1  18    5.02   361.9    8.1      31.773
2014    9        7     1  24    5.02   361.9    8.1      31.793
2014    9        7     1  29    5.03   361.8    8.1      31.813
2014    9        7     1  35    5.03   361.8    8.1      31.833
2014    9        7     1  40    5.03   361.8    8.1      31.853
2014    9        7     1  46    5.04   361.8    8.1      31.874
2014    9        7     1  52    5.04   361.8    8.1      31.894
2014    9        7     1  57    5.04   361.8    8.1      31.914
2014    9        7     2   3    5.05   361.7    8.1      31.935
2014    9        7     2   9    5.05   361.7    8.1      31.955
2014    9        7     2  14    5.06   361.7    8.1      31.976
2014    9        7     2  20    5.06   361.7    8.1      31.997
2014    9        7     2  26    5.06   361.7    8.1      32.017
2014    9        7     2  31    5.07   361.7    8.2      32.038
2014    9        7     2  37    5.07   361.7    8.2      32.059
2014    9        7     2  43    5.07   361.6    8.2      32.081
2014    9        7     2  48    5.08   361.6    8.2      32.102
2014    9        7     2  54    5.08   361.6    8.2      32.124
2014    9        7     2  59    5.09   361.6    8.2      32.145
2014    9        7     3   5    5.09   361.6    8.2      32.167
2014    9        7     3  11    5.09   361.6    8.2      32.190
2014    9        7     3  16    5.10   361.6    8.2      32.212
2014    9        7     3  22    5.10   361.6    8.2      32.235
2014    9        7     3  28    5.11   361.5    8.2      32.258
2014    9        7     3  33    5.11   361.5    8.2      32.281
2014    9        7     3  39    5.11   361.5    8.2      32.305
2014    9        7     3  45    5.12   361.5    8.2      32.329
2014    9        7     3  50    5.12   361.5    8.2      32.353
2014    9        7     3  56    5.13   361.5    8.3      32.377
2014    9        7     4   2    5.13   361.5    8.3      32.403
2014    9        7     4   7    5.13   361.5    8.3      32.428
2014    9        7     4  13    5.14   361.5    8.3      32.455
2014    9        7     4  18    5.14   361.5    8.3      32.481
2014    9        7     4  24    5.15   361.5    8.3      32.508
2014    9        7     4  30    5.15   361.5    8.3      32.535
2014    9        7     4  35    5.15   361.5    8.3      32.563
2014    9        7     4  41    5.16   361.5    8.3      32.591
2014    9        7     4  47    5.16   361.5    8.3      32.619
2014    9        7     4  52    5.17   361.5    8.3      32.647
2014    9        7     4  58    5.17   361.5    8.3      32.675
2014    9        7     5   4    5.17   361.5    8.3      32.703
2014    9        7     5   9    5.18   361.5    8.4      32.731
2014    9        7     5  15    5.18   361.5    8.4      32.760
2014    9        7     5  21    5.19   361.5    8.4      32.788
2014    9        7     5  26    5.19   361.5    8.4      32.816
2014    9        7     5  32    5.19   361.5    8.4      32.844
2014    9        7     5  37    5.20   361.6    8.4      32.873
2014    9        7     5  43    5.20   361.6    8.4      32.901
2014    9        7     5  49    5.21   361.6    8.4      32.930
2014    9        7     5  54    5.21   361.6    8.4      32.959
2014    9        7     6   0    5.21   361.6    8.4      32.988
2014    9        7     6   6    5.22   361.6    8.4      33.017
2014    9        7     6  11    5.22   361.6    8.4      33.045
2014    9        7     6  17    5.23   361.6    8.4      33.074
2014    9        7     6  23    5.23   361.6    8.4      33.103
2014    9        7     6  28    5.23   361.6    8.4      33.132
2014    9        7     6  34    5.24   361.6    8.5      33.160
2014    9        7     6  39    5.24   361.6    8.5      33.189
2014    9        7     6  45    5.25   361.7    8.5      33.217
2014    9        7     6  51    5.25   361.7    8.5      33.245
2014    9        7     6  56    5.25   361.7    8.5      33.273
2014    9        7     7   2    5.26   361.7    8.5      33.301
2014    9        7     7   8    5.26   361.7    8.5      33.329
2014    9        7     7  13    5.26   361.7    8.5      33.357
2014    9        7     7  19    5.27   361.7    8.5      33.385
2014    9        7     7  25    5.27   361.7    8.5      33.413
2014    9        7     7  30    5.28   361.7    8.5      33.440
2014    9        7     7  36    5.28   361.7    8.5      33.468
2014    9        7     7  42    5.28   361.8    8.5      33.495
2014    9        7     7  47    5.29   361.8    8.5      33.523
2014    9        7     7  53    5.29   361.8    8.5      33.550
2014    9        7     7  58    5.30   361.8    8.5      33.577
2014    9        7     8   4    5.30   361.8    8.6      33.605
2014    9        7     8  10    5.30   361.8    8.6      33.632
2014    9        7     8  15    5.31   361.8    8.6      33.659
2014    9        7     8  21    5.31   361.9    8.6      33.687
2014    9        7     8  27    5.31   361.9    8.6      33.714
2014    9        7     8  32    5.32   361.9    8.6      33.741
2014    9        7     8  38    5.32   361.9    8.6      33.768
2014    9        7     8  44    5.33   361.9    8.6      33.795
2014    9        7     8  49    5.33   361.9    8.6      33.822
2014    9        7     8  55    5.33   362.0    8.6      33.850
2014    9        7     9   1    5.34   362.0    8.6      33.877
2014    9        7     9   6    5.34   362.0    8.6      33.904
2014    9        7     9  12    5.35   362.0    8.6      33.931
2014    9        7     9  17    5.35   362.0    8.6      33.958
2014    9        7     9  23    5.35   362.1    8.6      33.985
2014    9        7     9  29    5.36   362.1    8.6      34.013
2014    9        7     9  34    5.36   362.1    8.6      34.040
2014    9        7     9  40    5.37   362.1    8.7      34.067
2014    9        7     9  46    5.37   362.1    8.7      34.094
2014    9        7     9  51    5.37   362.2    8.7      34.122
2014    9        7     9  57    5.38   362.2    8.7      34.149
2014    9        7    10   3    5.38   362.2    8.7      34.177
2014    9        7    10   8    5.38   362.2    8.7      34.205
2014    9        7    10  14    5.39   362.2    8.7      34.232
2014    9        7    10  19    5.39   362.3    8.7      34.260
2014    9        7    10  25    5.40   362.3    8.7      34.288
2014    9        7    10  31    5.40   362.3    8.7      34.316
2014    9        7    10  36    5.40   362.3    8.7      34.345
2014    9        7    10  42    5.41   362.3    8.7      34.373
2014    9        7    10  48    5.41   362.4    8.7      34.402
2014    9        7    10  53    5.42   362.4    8.7      34.431
2014    9        7    10  59    5.42   362.4    8.7      34.461
2014    9        7    11   5    5.42   362.4    8.8      34.491
2014    9        7    11  10    5.43   362.5    8.8      34.521
2014    9        7    11  16    5.43   362.5    8.8      34.552
2014    9        7    11  22    5.44   362.5    8.8      34.583
2014    9        7    11  27    5.44   362.6    8.8      34.615
2014    9        7    11  33    5.44   362.6    8.8      34.648
2014    9        7    11  38    5.45   362.6    8.8      34.681
2014    9        7    11  44    5.45   362.7    8.8      34.715
2014    9        7    11  50    5.46   362.7    8.8      34.750
2014    9        7    11  55    5.46   362.7    8.8      34.785
2014    9        7    12   1    5.46   362.8    8.8      34.820
2014    9        7    12   7    5.47   362.8    8.8      34.855
2014    9        7    12  12    5.47   362.8    8.8      34.890
2014    9        7    12  18    5.48   362.9    8.8      34.925
2014    9        7    12  24    5.48   362.9    8.8      34.961
2014    9        7    12  29    5.48   363.0    8.9      34.996
2014    9        7    12  35    5.49   363.0    8.9      35.031
2014    9        7    12  41    5.49   363.1    8.9      35.066
2014    9        7    12  46    5.50   363.1    8.9      35.100
2014    9        7    12  52    5.50   363.1    8.9      35.135
2014    9        7    12  57    5.50   363.2    8.9      35.169
2014    9        7    13   3    5.51   363.2    8.9      35.204
2014    9        7    13   9    5.51   363.3    8.9      35.238
2014    9        7    13  14    5.51   363.3    8.9      35.272
2014    9        7    13  20    5.52   363.4    8.9      35.306
2014    9        7    13  26    5.52   363.4    8.9      35.340
2014    9        7    13  31    5.53   363.5    8.9      35.373
2014    9        7    13  37    5.53   363.5    8.9      35.407
2014    9        7    13  43    5.53   363.5    8.9      35.441
2014    9        7    13  48    5.54   363.6    8.9      35.474
2014    9        7    13  54    5.54   363.6    8.9      35.507
2014    9        7    14   0    5.54   363.7    8.9      35.540
2014    9        7    14   5    5.55   363.7    8.9      35.573
2014    9        7    14  11    5.55   363.8    8.9      35.606
2014    9        7    14  16    5.55   363.8    9.0      35.639
2014    9        7    14  22    5.56   363.9    9.0      35.672
2014    9        7    14  28    5.56   363.9    9.0      35.704
2014    9        7    14  33    5.57   364.0    9.0      35.737
2014    9        7    14  39    5.57   364.0    9.0      35.770
2014    9        7    14  45    5.57   364.1    9.0      35.802
2014    9        7    14  50    5.58   364.1    9.0      35.835
2014    9        7    14  56    5.58   364.2    9.0      35.867
2014    9        7    15   2    5.58   364.2    9.0      35.900
2014    9        7    15   7    5.59   364.3    9.0      35.932
2014    9        7    15  13    5.59   364.3    9.0      35.965
2014    9        7    15  18    5.60   364.4    9.0      35.998
2014    9        7    15  24    5.60   364.5    9.0      36.030
2014    9        7    15  30    5.60   364.5    9.0      36.063
2014    9        7    15  35    5.61   364.6    9.0      36.096
2014    9        7    15  41    5.61   364.6    9.0      36.129
2014    9        7    15  47    5.61   364.7    9.0      36.161
2014    9        7    15  52    5.62   364.7    9.0      36.195
2014    9        7    15  58    5.62   364.8    9.0      36.228
2014    9        7    16   4    5.62   364.9    9.0      36.261
2014    9        7    16   9    5.63   364.9    9.0      36.294
2014    9        7    16  15    5.63   365.0    9.1      36.328
2014    9        7    16  21    5.64   365.0    9.1      36.361
2014    9        7    16  26    5.64   365.1    9.1      36.395
2014    9        7    16  32    5.64   365.2    9.1      36.428
2014    9        7    16  37    5.65   365.2    9.1      36.461
2014    9        7    16  43    5.65   365.3    9.1      36.494
2014    9        7    16  49    5.65   365.3    9.1      36.527
2014    9        7    16  54    5.66   365.4    9.1      36.560
2014    9        7    17   0    5.66   365.5    9.1      36.593
2014    9        7    17   6    5.67   365.5    9.1      36.625
2014    9        7    17  11    5.67   365.6    9.1      36.658
2014    9        7    17  17    5.67   365.7    9.1      36.691
2014    9        7    17  23    5.68   365.7    9.1      36.723
2014    9        7    17  28    5.68   365.8    9.1      36.756
2014    9        7    17  34    5.68   365.9    9.1      36.788
2014    9        7    17  40    5.69   365.9    9.1      36.821
2014    9        7    17  45    5.69   366.0    9.1      36.853
2014    9        7    17  51    5.69   366.1    9.1      36.886
2014    9        7    17  56    5.70   366.1    9.1      36.919
2014    9        7    18   2    5.70   366.2    9.1      36.952
2014    9        7    18   8    5.71   366.3    9.1      36.985
2014    9        7    18  13    5.71   366.3    9.1      37.018
2014    9        7    18  19    5.71   366.4    9.2      37.052
2014    9        7    18  25    5.72   366.5    9.2      37.087
2014    9        7    18  30    5.72   366.5    9.2      37.122
2014    9        7    18  36    5.72   366.6    9.2      37.158
2014    9        7    18  42    5.73   366.7    9.2      37.194
2014    9        7    18  47    5.73   366.8    9.2      37.231
2014    9        7    18  53    5.73   366.9    9.2      37.269
2014    9        7    18  58    5.74   366.9    9.2      37.307
2014    9        7    19   4    5.74   367.0    9.2      37.345
2014    9        7    19  10    5.74   367.1    9.2      37.383
2014    9        7    19  15    5.75   367.2    9.2      37.420
2014    9        7    19  21    5.75   367.3    9.2      37.457
2014    9        7    19  27    5.75   367.4    9.2      37.494
2014    9        7    19  32    5.76   367.4    9.2      37.531
2014    9        7    19  38    5.76   367.5    9.2      37.567
2014    9        7    19  44    5.76   367.6    9.2      37.603
2014    9        7    19  49    5.77   367.7    9.2      37.638
2014    9        7    19  55    5.77   367.8    9.2      37.673
2014    9        7    20   1    5.77   367.9    9.2      37.708
2014    9        7    20   6    5.78   367.9    9.2      37.743
2014    9        7    20  12    5.78   368.0    9.2      37.777
2014    9        7    20  17    5.78   368.1    9.2      37.811
2014    9        7    20  23    5.79   368.2    9.2      37.844
2014    9        7    20  29    5.79   368.3    9.2      37.878
2014    9        7    20  34    5.79   368.4    9.2      37.911
2014    9        7    20  40    5.79   368.4    9.2      37.943
2014    9        7    20  46    5.80   368.5    9.2      37.975
2014    9        7    20  51    5.80   368.6    9.2      38.008
2014    9        7    20  57    5.80   368.7    9.2      38.039
2014    9        7    21   3    5.81   368.8    9.2      38.071
2014    9        7    21   8    5.81   368.9    9.2      38.102
2014    9        7    21  14    5.81   368.9    9.2      38.134
2014    9        7    21  20    5.81   369.0    9.2      38.164
2014    9        7    21  25    5.82   369.1    9.3      38.195
2014    9        7    21  31    5.82   369.2    9.3      38.226
2014    9        7    21  36    5.82   369.3    9.3      38.257
2014    9        7    21  42    5.82   369.4    9.3      38.287
2014    9        7    21  48    5.83   369.4    9.3      38.317
2014    9        7    21  53    5.83   369.5    9.3      38.347
2014    9        7    21  59    5.83   369.6    9.3      38.377
2014    9        7    22   5    5.84   369.7    9.3      38.407
2014    9        7    22  10    5.84   369.8    9.3      38.436
2014    9        7    22  16    5.84   369.9    9.3      38.466
2014    9        7    22  22    5.84   369.9    9.3      38.495
2014    9        7    22  27    5.85   370.0    9.3      38.525
2014    9        7    22  33    5.85   370.1    9.3      38.554
2014    9        7    22  39    5.85   370.2    9.3      38.583
2014    9        7    22  44    5.85   370.3    9.3      38.612
2014    9        7    22  50    5.86   370.3    9.3      38.642
2014    9        7    22  55    5.86   370.4    9.3      38.672
2014    9        7    23   1    5.86   370.5    9.3      38.701
2014    9        7    23   7    5.86   370.6    9.3      38.731
2014    9        7    23  12    5.87   370.7    9.3      38.761
2014    9        7    23  18    5.87   370.8    9.3      38.792
2014    9        7    23  24    5.87   370.8    9.3      38.822
2014    9        7    23  29    5.88   370.9    9.3      38.853
2014    9        7    23  35    5.88   371.0    9.3      38.885
2014    9        7    23  41    5.88   371.1    9.3      38.916
2014    9        7    23  46    5.88   371.2    9.3      38.948
2014    9        7    23  52    5.89   371.3    9.3      38.979
2014    9        7    23  57    5.89   371.4    9.3      39.011
2014    9        8     0   3    5.89   371.5    9.3      39.044
2014    9        8     0   9    5.90   371.5    9.3      39.076
2014    9        8     0  14    5.90   371.6    9.3      39.109
2014    9        8     0  20    5.90   371.7    9.3      39.143
2014    9        8     0  26    5.91   371.8    9.3      39.177
2014    9        8     0  31    5.91   371.9    9.3      39.211
2014    9        8     0  37    5.91   372.0    9.3      39.245
2014    9        8     0  43    5.92   372.1    9.3      39.281
2014    9        8     0  48    5.92   372.2    9.3      39.317
2014    9        8     0  54    5.92   372.3    9.3      39.353
2014    9        8     1   0    5.93   372.4    9.3      39.389
2014    9        8     1   5    5.93   372.5    9.3      39.427
2014    9        8     1  11    5.93   372.6    9.3      39.465
2014    9        8     1  16    5.94   372.7    9.3      39.504
2014    9        8     1  22    5.94   372.8    9.3      39.545
2014    9        8     1  28    5.94   373.0    9.4      39.587
2014    9        8     1  33    5.95   373.1    9.4      39.630
2014    9        8     1  39    5.95   373.2    9.4      39.675
2014    9        8     1  45    5.95   373.3    9.4      39.721
2014    9        8     1  50    5.95   373.4    9.4      39.767
2014    9        8     1  56    5.96   373.6    9.4      39.813
2014    9        8     2   2    5.96   373.7    9.4      39.861
2014    9        8     2   7    5.96   373.8    9.4      39.907
2014    9        8     2  13    5.97   374.0    9.4      39.953
2014    9        8     2  19    5.97   374.1    9.4      39.999
2014    9        8     2  24    5.97   374.2    9.4      40.044
2014    9        8     2  30    5.97   374.3    9.4      40.088
2014    9        8     2  35    5.98   374.5    9.4      40.132
2014    9        8     2  41    5.98   374.6    9.4      40.176
2014    9        8     2  47    5.98   374.7    9.4      40.219
2014    9        8     2  52    5.98   374.9    9.4      40.261
2014    9        8     2  58    5.99   375.0    9.4      40.302
2014    9        8     3   4    5.99   375.1    9.4      40.343
2014    9        8     3   9    5.99   375.3    9.4      40.384
2014    9        8     3  15    5.99   375.4    9.4      40.423
2014    9        8     3  21    6.00   375.5    9.4      40.463
2014    9        8     3  26    6.00   375.6    9.4      40.501
2014    9        8     3  32    6.00   375.8    9.4      40.539
2014    9        8     3  38    6.00   375.9    9.4      40.577
2014    9        8     3  43    6.00   376.0    9.4      40.614
2014    9        8     3  49    6.01   376.2    9.4      40.651
2014    9        8     3  54    6.01   376.3    9.4      40.687
2014    9        8     4   0    6.01   376.4    9.4      40.722
2014    9        8     4   6    6.01   376.6    9.4      40.757
2014    9        8     4  11    6.01   376.7    9.4      40.792
2014    9        8     4  17    6.02   376.8    9.4      40.826
2014    9        8     4  23    6.02   377.0    9.4      40.859
2014    9        8     4  28    6.02   377.1    9.4      40.892
2014    9        8     4  34    6.02   377.2    9.4      40.925
2014    9        8     4  40    6.02   377.3    9.4      40.957
2014    9        8     4  45    6.02   377.5    9.4      40.988
2014    9        8     4  51    6.03   377.6    9.4      41.020
2014    9        8     4  56    6.03   377.7    9.4      41.050
2014    9        8     5   2    6.03   377.9    9.4      41.080
2014    9        8     5   8    6.03   378.0    9.4      41.110
2014    9        8     5  13    6.03   378.1    9.4      41.139
2014    9        8     5  19    6.03   378.3    9.4      41.168
2014    9        8     5  25    6.04   378.4    9.4      41.196
2014    9        8     5  30    6.04   378.5    9.4      41.224
2014    9        8     5  36    6.04   378.7    9.4      41.252
2014    9        8     5  42    6.04   378.8    9.4      41.279
2014    9        8     5  47    6.04   378.9    9.3      41.305
2014    9        8     5  53    6.04   379.1    9.3      41.332
2014    9        8     5  59    6.04   379.2    9.3      41.358
2014    9        8     6   4    6.05   379.3    9.3      41.383
2014    9        8     6  10    6.05   379.4    9.3      41.409
2014    9        8     6  15    6.05   379.6    9.3      41.434
2014    9        8     6  21    6.05   379.7    9.3      41.459
2014    9        8     6  27    6.05   379.8    9.3      41.483
2014    9        8     6  32    6.05   380.0    9.3      41.507
2014    9        8     6  38    6.05   380.1    9.3      41.531
2014    9        8     6  44    6.06   380.2    9.3      41.555
2014    9        8     6  49    6.06   380.4    9.3      41.579
2014    9        8     6  55    6.06   380.5    9.3      41.602
2014    9        8     7   1    6.06   380.6    9.3      41.625
2014    9        8     7   6    6.06   380.8    9.3      41.648
2014    9        8     7  12    6.06   380.9    9.3      41.670
2014    9        8     7  18    6.06   381.0    9.3      41.692
2014    9        8     7  23    6.06   381.2    9.3      41.714
2014    9        8     7  29    6.07   381.3    9.3      41.736
2014    9        8     7  34    6.07   381.4    9.3      41.757
2014    9        8     7  40    6.07   381.6    9.3      41.779
2014    9        8     7  46    6.07   381.7    9.3      41.800
2014    9        8     7  51    6.07   381.9    9.3      41.821
2014    9        8     7  57    6.07   382.0    9.3      41.842
2014    9        8     8   3    6.07   382.1    9.3      41.863
2014    9        8     8   8    6.07   382.3    9.3      41.884
2014    9        8     8  14    6.08   382.4    9.3      41.905
2014    9        8     8  20    6.08   382.5    9.2      41.926
2014    9        8     8  25    6.08   382.7    9.2      41.947
2014    9        8     8  31    6.08   382.8    9.2      41.967
2014    9        8     8  36    6.08   382.9    9.2      41.988
2014    9        8     8  42    6.08   383.1    9.2      42.009
2014    9        8     8  48    6.08   383.2    9.2      42.030
2014    9        8     8  53    6.08   383.3    9.2      42.051
2014    9        8     8  59    6.09   383.5    9.2      42.072
2014    9        8     9   5    6.09   383.6    9.2      42.093
2014    9        8     9  10    6.09   383.7    9.2      42.115
2014    9        8     9  16    6.09   383.9    9.2      42.136
2014    9        8     9  22    6.09   384.0    9.2      42.157
2014    9        8     9  27    6.09   384.1    9.2      42.179
2014    9        8     9  33    6.09   384.3    9.2      42.202
2014    9        8     9  39    6.09   384.4    9.2      42.226
2014    9        8     9  44    6.10   384.5    9.2      42.250
2014    9        8     9  50    6.10   384.7    9.2      42.275
2014    9        8     9  55    6.10   384.8    9.2      42.302
2014    9        8    10   1    6.10   385.0    9.2      42.328
2014    9        8    10   7    6.10   385.1    9.2      42.356
2014    9        8    10  12    6.10   385.3    9.2      42.384
2014    9        8    10  18    6.10   385.4    9.2      42.412
2014    9        8    10  24    6.10   385.6    9.2      42.440
2014    9        8    10  29    6.11   385.7    9.2      42.467
2014    9        8    10  35    6.11   385.8    9.2      42.495
2014    9        8    10  41    6.11   386.0    9.2      42.522
2014    9        8    10  46    6.11   386.1    9.2      42.549
2014    9        8    10  52    6.11   386.3    9.2      42.576
2014    9        8    10  58    6.11   386.4    9.2      42.602
2014    9        8    11   3    6.11   386.6    9.2      42.629
2014    9        8    11   9    6.11   386.7    9.2      42.656
2014    9        8    11  14    6.11   386.9    9.2      42.682
2014    9        8    11  20    6.11   387.0    9.2      42.709
2014    9        8    11  26    6.11   387.1    9.2      42.737
2014    9        8    11  31    6.11   387.3    9.2      42.764
2014    9        8    11  37    6.12   387.4    9.2      42.792
2014    9        8    11  43    6.12   387.6    9.2      42.820
2014    9        8    11  48    6.12   387.7    9.2      42.849
2014    9        8    11  54    6.12   387.9    9.2      42.877
2014    9        8    12   0    6.12   388.0    9.2      42.906
2014    9        8    12   5    6.12   388.2    9.2      42.935
2014    9        8    12  11    6.12   388.3    9.2      42.965
2014    9        8    12  16    6.12   388.5    9.2      42.995
2014    9        8    12  22    6.12   388.6    9.2      43.025
2014    9        8    12  28    6.12   388.8    9.2      43.056
2014    9        8    12  33    6.12   388.9    9.2      43.088
2014    9        8    12  39    6.12   389.1    9.2      43.120
2014    9        8    12  45    6.12   389.2    9.2      43.152
2014    9        8    12  50    6.12   389.4    9.2      43.184
2014    9        8    12  56    6.12   389.5    9.2      43.216
2014    9        8    13   2    6.12   389.7    9.2      43.247
2014    9        8    13   7    6.12   389.8    9.1      43.278
2014    9        8    13  13    6.12   390.0    9.1      43.308
2014    9        8    13  19    6.12   390.1    9.1      43.338
2014    9        8    13  24    6.12   390.3    9.1      43.367
2014    9        8    13  30    6.12   390.4    9.1      43.396
2014    9        8    13  35    6.12   390.6    9.1      43.425
2014    9        8    13  41    6.12   390.8    9.1      43.453
2014    9        8    13  47    6.12   390.9    9.1      43.480
2014    9        8    13  52    6.12   391.1    9.1      43.507
2014    9        8    13  58    6.12   391.2    9.1      43.533
2014    9        8    14   4    6.12   391.4    9.1      43.558
2014    9        8    14   9    6.12   391.5    9.1      43.583
2014    9        8    14  15    6.12   391.7    9.1      43.608
2014    9        8    14  21    6.12   391.8    9.1      43.632
2014    9        8    14  26    6.12   392.0    9.1      43.655
2014    9        8    14  32    6.12   392.2    9.1      43.678
2014    9        8    14  38    6.12   392.3    9.1      43.700
2014    9        8    14  43    6.12   392.5    9.1      43.722
2014    9        8    14  49    6.12   392.6    9.1      43.744
2014    9        8    14  54    6.12   392.8    9.1      43.764
2014    9        8    15   0    6.12   392.9    9.0      43.785
2014    9        8    15   6    6.12   393.1    9.0      43.805
2014    9        8    15  11    6.12   393.2    9.0      43.824
2014    9        8    15  17    6.12   393.4    9.0      43.843
2014    9        8    15  23    6.12   393.5    9.0      43.861
2014    9        8    15  28    6.12   393.7    9.0      43.879
2014    9        8    15  34    6.12   393.8    9.0      43.897
2014    9        8    15  40    6.12   394.0    9.0      43.914
2014    9        8    15  45    6.12   394.1    9.0      43.931
2014    9        8    15  51    6.11   394.3    9.0      43.947
2014    9        8    15  56    6.11   394.4    9.0      43.962
2014    9        8    16   2    6.11   394.6    9.0      43.978
2014    9        8    16   8    6.11   394.7    9.0      43.993
2014    9        8    16  13    6.11   394.9    9.0      44.007
2014    9        8    16  19    6.11   395.0    8.9      44.021
2014    9        8    16  25    6.11   395.2    8.9      44.035
2014    9        8    16  30    6.11   395.3    8.9      44.048
2014    9        8    16  36    6.11   395.5    8.9      44.061
2014    9        8    16  42    6.11   395.6    8.9      44.074
2014    9        8    16  47    6.11   395.8    8.9      44.086
2014    9        8    16  53    6.11   395.9    8.9      44.098
2014    9        8    16  59    6.10   396.1    8.9      44.109
2014    9        8    17   4    6.10   396.2    8.9      44.120
2014    9        8    17  10    6.10   396.4    8.9      44.131
2014    9        8    17  15    6.10   396.5    8.9      44.142
2014    9        8    17  21    6.10   396.7    8.9      44.152
2014    9        8    17  27    6.10   396.8    8.9      44.161
2014    9        8    17  32    6.10   397.0    8.8      44.171
2014    9        8    17  38    6.10   397.1    8.8      44.180
2014    9        8    17  44    6.09   397.2    8.8      44.189
2014    9        8    17  49    6.09   397.4    8.8      44.197
2014    9        8    17  55    6.09   397.5    8.8      44.206
2014    9        8    18   1    6.09   397.7    8.8      44.214
2014    9        8    18   6    6.09   397.8    8.8      44.221
2014    9        8    18  12    6.09   398.0    8.8      44.229
2014    9        8    18  18    6.09   398.1    8.8      44.236
2014    9        8    18  23    6.08   398.2    8.8      44.243
2014    9        8    18  29    6.08   398.4    8.8      44.250
2014    9        8    18  34    6.08   398.5    8.8      44.257
2014    9        8    18  40    6.08   398.7    8.8      44.263
2014    9        8    18  46    6.08   398.8    8.7      44.269
2014    9        8    18  51    6.08   398.9    8.7      44.275
2014    9        8    18  57    6.07   399.1    8.7      44.281
2014    9        8    19   3    6.07   399.2    8.7      44.287
2014    9        8    19   8    6.07   399.4    8.7      44.292
2014    9        8    19  14    6.07   399.5    8.7      44.298
2014    9        8    19  20    6.07   399.6    8.7      44.303
2014    9        8    19  25    6.07   399.8    8.7      44.309
2014    9        8    19  31    6.06   399.9    8.7      44.314
2014    9        8    19  36    6.06   400.0    8.7      44.319
2014    9        8    19  42    6.06   400.2    8.7      44.324
2014    9        8    19  48    6.06   400.3    8.7      44.328
2014    9        8    19  53    6.06   400.4    8.6      44.333
2014    9        8    19  59    6.05   400.6    8.6      44.338
2014    9        8    20   5    6.05   400.7    8.6      44.343
2014    9        8    20  10    6.05   400.8    8.6      44.347
2014    9        8    20  16    6.05   400.9    8.6      44.352
2014    9        8    20  22    6.05   401.1    8.6      44.357
2014    9        8    20  27    6.05   401.2    8.6      44.361
2014    9        8    20  33    6.04   401.3    8.6      44.365
2014    9        8    20  39    6.04   401.4    8.6      44.370
2014    9        8    20  44    6.04   401.6    8.6      44.375
2014    9        8    20  50    6.04   401.7    8.6      44.380
2014    9        8    20  55    6.04   401.8    8.6      44.386
2014    9        8    21   1    6.03   401.9    8.6      44.392
2014    9        8    21   7    6.03   402.1    8.6      44.397
2014    9        8    21  12    6.03   402.2    8.5      44.404
2014    9        8    21  18    6.03   402.3    8.5      44.410
2014    9        8    21  24    6.02   402.4    8.5      44.416
2014    9        8    21  29    6.02   402.6    8.5      44.423
2014    9        8    21  35    6.02   402.7    8.5      44.429
2014    9        8    21  41    6.02   402.8    8.5      44.434
2014    9        8    21  46    6.02   402.9    8.5      44.440
2014    9        8    21  52    6.01   403.0    8.5      44.445
2014    9        8    21  58    6.01   403.1    8.5      44.450
2014    9        8    22   3    6.01   403.3    8.5      44.455
2014    9        8    22   9    6.01   403.4    8.5      44.460
2014    9        8    22  14    6.00   403.5    8.5      44.464
2014    9        8    22  20    6.00   403.6    8.5      44.468
2014    9        8    22  26    6.00   403.7    8.5      44.472
2014    9        8    22  31    6.00   403.8    8.4      44.475
2014    9        8    22  37    5.99   404.0    8.4      44.478
2014    9        8    22  43    5.99   404.1    8.4      44.481
2014    9        8    22  48    5.99   404.2    8.4      44.484
2014    9        8    22  54    5.99   404.3    8.4      44.486
2014    9        8    23   0    5.98   404.4    8.4      44.488
2014    9        8    23   5    5.98   404.5    8.4      44.489
2014    9        8    23  11    5.98   404.6    8.4      44.491
2014    9        8    23  17    5.98   404.7    8.4      44.492
2014    9        8    23  22    5.97   404.9    8.4      44.492
2014    9        8    23  28    5.97   405.0    8.4      44.493
2014    9        8    23  33    5.97   405.1    8.4      44.493
2014    9        8    23  39    5.97   405.2    8.4      44.493
2014    9        8    23  45    5.96   405.3    8.3      44.492
2014    9        8    23  50    5.96   405.4    8.3      44.491
2014    9        8    23  56    5.96   405.5    8.3      44.490
2014    9        9     0   2    5.96   405.6    8.3      44.489
2014    9        9     0   7    5.95   405.7    8.3      44.487
2014    9        9     0  13    5.95   405.8    8.3      44.485
2014    9        9     0  19    5.95   405.9    8.3      44.482
2014    9        9     0  24    5.94   406.0    8.3      44.480
2014    9        9     0  30    5.94   406.1    8.3      44.477
2014    9        9     0  35    5.94   406.2    8.3      44.474
2014    9        9     0  41    5.94   406.3    8.3      44.470
2014    9        9     0  47    5.93   406.4    8.3      44.466
2014    9        9     0  52    5.93   406.5    8.3      44.462
2014    9        9     0  58    5.93   406.6    8.2      44.458
2014    9        9     1   4    5.92   406.7    8.2      44.453
2014    9        9     1   9    5.92   406.8    8.2      44.448
2014    9        9     1  15    5.92   406.9    8.2      44.443
2014    9        9     1  21    5.92   407.0    8.2      44.437
2014    9        9     1  26    5.91   407.1    8.2      44.431
2014    9        9     1  32    5.91   407.2    8.2      44.425
2014    9        9     1  38    5.91   407.3    8.2      44.419
2014    9        9     1  43    5.90   407.4    8.2      44.412
2014    9        9     1  49    5.90   407.4    8.2      44.406
2014    9        9     1  54    5.90   407.5    8.2      44.398
2014    9        9     2   0    5.90   407.6    8.2      44.391
2014    9        9     2   6    5.89   407.7    8.1      44.384
2014    9        9     2  11    5.89   407.8    8.1      44.377
2014    9        9     2  17    5.89   407.9    8.1      44.369
2014    9        9     2  23    5.88   408.0    8.1      44.361
2014    9        9     2  28    5.88   408.0    8.1      44.353
2014    9        9     2  34    5.88   408.1    8.1      44.345
2014    9        9     2  40    5.88   408.2    8.1      44.337
2014    9        9     2  45    5.87   408.3    8.1      44.329
2014    9        9     2  51    5.87   408.4    8.1      44.321
2014    9        9     2  57    5.87   408.5    8.1      44.312
2014    9        9     3   2    5.86   408.5    8.1      44.304
2014    9        9     3   8    5.86   408.6    8.1      44.295
2014    9        9     3  13    5.86   408.7    8.1      44.287
2014    9        9     3  19    5.85   408.8    8.1      44.278
2014    9        9     3  25    5.85   408.8    8.0      44.270
2014    9        9     3  30    5.85   408.9    8.0      44.261
2014    9        9     3  36    5.85   409.0    8.0      44.252
2014    9        9     3  42    5.84   409.1    8.0      44.244
2014    9        9     3  47    5.84   409.1    8.0      44.235
2014    9        9     3  53    5.84   409.2    8.0      44.226
2014    9        9     3  59    5.83   409.3    8.0      44.217
2014    9        9     4   4    5.83   409.4    8.0      44.209
2014    9        9     4  10    5.83   409.4    8.0      44.200
2014    9        9     4  15    5.83   409.5    8.0      44.191
2014    9        9     4  21    5.82   409.6    8.0      44.182
2014    9        9     4  27    5.82   409.6    8.0      44.174
2014    9        9     4  32    5.82   409.7    8.0      44.165
2014    9        9     4  38    5.81   409.8    8.0      44.156
2014    9        9     4  44    5.81   409.8    8.0      44.147
2014    9        9     4  49    5.81   409.9    8.0      44.139
2014    9        9     4  55    5.81   410.0    7.9      44.130
2014    9        9     5   1    5.80   410.0    7.9      44.122
2014    9        9     5   6    5.80   410.1    7.9      44.114
2014    9        9     5  12    5.80   410.2    7.9      44.105
2014    9        9     5  18    5.80   410.2    7.9      44.097
2014    9        9     5  23    5.79   410.3    7.9      44.089
2014    9        9     5  29    5.79   410.4    7.9      44.081
2014    9        9     5  34    5.79   410.4    7.9      44.072
2014    9        9     5  40    5.78   410.5    7.9      44.063
2014    9        9     5  46    5.78   410.5    7.9      44.054
2014    9        9     5  51    5.78   410.6    7.9      44.045
2014    9        9     5  57    5.78   410.7    7.9      44.035
2014    9        9     6   3    5.77   410.7    7.9      44.025
2014    9        9     6   8    5.77   410.8    7.9      44.015
2014    9        9     6  14    5.77   410.8    7.9      44.005
2014    9        9     6  20    5.76   410.9    7.9      43.995
2014    9        9     6  25    5.76   411.0    7.9      43.984
2014    9        9     6  31    5.76   411.0    7.8      43.974
2014    9        9     6  37    5.76   411.1    7.8      43.963
2014    9        9     6  42    5.75   411.1    7.8      43.951
2014    9        9     6  48    5.75   411.2    7.8      43.940
2014    9        9     6  53    5.75   411.2    7.8      43.928
2014    9        9     6  59    5.75   411.3    7.8      43.917
2014    9        9     7   5    5.74   411.3    7.8      43.905
2014    9        9     7  10    5.74   411.4    7.8      43.893
2014    9        9     7  16    5.74   411.4    7.8      43.880
2014    9        9     7  22    5.73   411.5    7.8      43.868
2014    9        9     7  27    5.73   411.5    7.8      43.855
2014    9        9     7  33    5.73   411.6    7.8      43.843
2014    9        9     7  39    5.73   411.6    7.8      43.830
2014    9        9     7  44    5.72   411.7    7.8      43.816
2014    9        9     7  50    5.72   411.7    7.8      43.803
2014    9        9     7  55    5.72   411.8    7.8      43.790
2014    9        9     8   1    5.71   411.8    7.8      43.777
2014    9        9     8   7    5.71   411.9    7.7      43.763
2014    9        9     8  12    5.71   411.9    7.7      43.750
2014    9        9     8  18    5.71   412.0    7.7      43.736
2014    9        9     8  24    5.70   412.0    7.7      43.722
2014    9        9     8  29    5.70   412.0    7.7      43.709
2014    9        9     8  35    5.70   412.1    7.7      43.695
2014    9        9     8  41    5.69   412.1    7.7      43.681
2014    9        9     8  46    5.69   412.2    7.7      43.668
2014    9        9     8  52    5.69   412.2    7.7      43.654
2014    9        9     8  58    5.69   412.2    7.7      43.641
2014    9        9     9   3    5.68   412.3    7.7      43.627
2014    9        9     9   9    5.68   412.3    7.7      43.614
2014    9        9     9  14    5.68   412.3    7.7      43.600
2014    9        9     9  20    5.68   412.4    7.7      43.587
2014    9        9     9  26    5.67   412.4    7.7      43.574
2014    9        9     9  31    5.67   412.4    7.7      43.561
2014    9        9     9  37    5.67   412.5    7.7      43.548
2014    9        9     9  43    5.66   412.5    7.7      43.535
2014    9        9     9  48    5.66   412.5    7.7      43.523
2014    9        9     9  54    5.66   412.6    7.6      43.510
2014    9        9    10   0    5.66   412.6    7.6      43.498
2014    9        9    10   5    5.65   412.6    7.6      43.486
2014    9        9    10  11    5.65   412.6    7.6      43.474
2014    9        9    10  17    5.65   412.7    7.6      43.463
2014    9        9    10  22    5.65   412.7    7.6      43.451
2014    9        9    10  28    5.64   412.7    7.6      43.440
2014    9        9    10  33    5.64   412.7    7.6      43.429
2014    9        9    10  39    5.64   412.8    7.6      43.418
2014    9        9    10  45    5.64   412.8    7.6      43.408
2014    9        9    10  50    5.64   412.8    7.6      43.397
2014    9        9    10  56    5.63   412.8    7.6      43.387
2014    9        9    11   2    5.63   412.9    7.6      43.377
2014    9        9    11   7    5.63   412.9    7.6      43.368
2014    9        9    11  13    5.63   412.9    7.6      43.358
2014    9        9    11  19    5.63   412.9    7.6      43.349
2014    9        9    11  24    5.62   413.0    7.6      43.340
2014    9        9    11  30    5.62   413.0    7.6      43.331
2014    9        9    11  36    5.62   413.0    7.6      43.322
2014    9        9    11  41    5.62   413.0    7.6      43.314
2014    9        9    11  47    5.62   413.0    7.6      43.306
2014    9        9    11  52    5.61   413.1    7.6      43.298
2014    9        9    11  58    5.61   413.1    7.6      43.291
2014    9        9    12   4    5.61   413.1    7.6      43.284
2014    9        9    12   9    5.61   413.1    7.6      43.276
2014    9        9    12  15    5.61   413.1    7.6      43.269
2014    9        9    12  21    5.60   413.2    7.6      43.262
2014    9        9    12  26    5.60   413.2    7.6      43.255
2014    9        9    12  32    5.60   413.2    7.6      43.247
2014    9        9    12  38    5.60   413.2    7.6      43.240
2014    9        9    12  43    5.60   413.2    7.6      43.232
2014    9        9    12  49    5.60   413.2    7.6      43.224
2014    9        9    12  54    5.59   413.3    7.6      43.217
2014    9        9    13   0    5.59   413.3    7.6      43.209
2014    9        9    13   6    5.59   413.3    7.6      43.201
2014    9        9    13  11    5.59   413.3    7.5      43.193
2014    9        9    13  17    5.59   413.3    7.5      43.185
2014    9        9    13  23    5.59   413.3    7.5      43.177
2014    9        9    13  28    5.58   413.4    7.5      43.169
2014    9        9    13  34    5.58   413.4    7.5      43.160
2014    9        9    13  40    5.58   413.4    7.5      43.152
2014    9        9    13  45    5.58   413.4    7.5      43.144
2014    9        9    13  51    5.58   413.4    7.5      43.135
2014    9        9    13  57    5.57   413.4    7.5      43.127
2014    9        9    14   2    5.57   413.5    7.5      43.118
2014    9        9    14   8    5.57   413.5    7.5      43.110
2014    9        9    14  13    5.57   413.5    7.5      43.101
2014    9        9    14  19    5.57   413.5    7.5      43.092
2014    9        9    14  25    5.57   413.5    7.5      43.084
2014    9        9    14  30    5.56   413.5    7.5      43.075
2014    9        9    14  36    5.56   413.5    7.5      43.066
2014    9        9    14  42    5.56   413.6    7.5      43.057
2014    9        9    14  47    5.56   413.6    7.5      43.049
2014    9        9    14  53    5.56   413.6    7.5      43.040
2014    9        9    14  59    5.56   413.6    7.5      43.031
2014    9        9    15   4    5.56   413.6    7.5      43.023
2014    9        9    15  10    5.55   413.6    7.5      43.014
2014    9        9    15  16    5.55   413.6    7.5      43.005
2014    9        9    15  21    5.55   413.7    7.5      42.996
2014    9        9    15  27    5.55   413.7    7.5      42.988
2014    9        9    15  32    5.55   413.7    7.5      42.979
2014    9        9    15  38    5.55   413.7    7.5      42.970
2014    9        9    15  44    5.54   413.7    7.5      42.962
2014    9        9    15  49    5.54   413.7    7.5      42.953
2014    9        9    15  55    5.54   413.7    7.5      42.945
2014    9        9    16   1    5.54   413.7    7.5      42.937
2014    9        9    16   6    5.54   413.7    7.5      42.928
2014    9        9    16  12    5.54   413.8    7.5      42.920
2014    9        9    16  18    5.53   413.8    7.5      42.912
2014    9        9    16  23    5.53   413.8    7.5      42.904
2014    9        9    16  29    5.53   413.8    7.5      42.896
2014    9        9    16  34    5.53   413.8    7.5      42.888
2014    9        9    16  40    5.53   413.8    7.5      42.880
2014    9        9    16  46    5.53   413.8    7.5      42.873
2014    9        9    16  51    5.53   413.8    7.5      42.865
2014    9        9    16  57    5.52   413.8    7.5      42.858
2014    9        9    17   3    5.52   413.8    7.5      42.850
2014    9        9    17   8    5.52   413.8    7.5      42.843
2014    9        9    17  14    5.52   413.9    7.5      42.836
2014    9        9    17  20    5.52   413.9    7.5      42.830
2014    9        9    17  25    5.52   413.9    7.5      42.823
2014    9        9    17  31    5.52   413.9    7.5      42.816
2014    9        9    17  37    5.52   413.9    7.5      42.810
2014    9        9    17  42    5.51   413.9    7.4      42.803
2014    9        9    17  48    5.51   413.9    7.4      42.797
2014    9        9    17  53    5.51   413.9    7.4      42.790
2014    9        9    17  59    5.51   413.9    7.4      42.784
2014    9        9    18   5    5.51   413.9    7.4      42.777
2014    9        9    18  10    5.51   413.9    7.4      42.771
2014    9        9    18  16    5.51   413.9    7.4      42.764
2014    9        9    18  22    5.51   413.9    7.4      42.758
2014    9        9    18  27    5.50   413.9    7.4      42.752
2014    9        9    18  33    5.50   414.0    7.4      42.745
2014    9        9    18  39    5.50   414.0    7.4      42.739
2014    9        9    18  44    5.50   414.0    7.4      42.732
2014    9        9    18  50    5.50   414.0    7.4      42.726
2014    9        9    18  56    5.50   414.0    7.4      42.720
2014    9        9    19   1    5.50   414.0    7.4      42.713
2014    9        9    19   7    5.50   414.0    7.4      42.707
2014    9        9    19  12    5.50   414.0    7.4      42.701
2014    9        9    19  18    5.49   414.0    7.4      42.695
2014    9        9    19  24    5.49   414.0    7.4      42.688
2014    9        9    19  29    5.49   414.0    7.4      42.682
2014    9        9    19  35    5.49   414.0    7.4      42.676
2014    9        9    19  41    5.49   414.0    7.4      42.670
2014    9        9    19  46    5.49   414.0    7.4      42.664
2014    9        9    19  52    5.49   414.0    7.4      42.658
2014    9        9    19  58    5.49   414.0    7.4      42.652
2014    9        9    20   3    5.49   414.0    7.4      42.646
2014    9        9    20   9    5.49   414.0    7.4      42.640
2014    9        9    20  15    5.48   414.0    7.4      42.634
2014    9        9    20  20    5.48   414.0    7.4      42.628
2014    9        9    20  26    5.48   414.0    7.4      42.622
2014    9        9    20  31    5.48   414.0    7.4      42.617
2014    9        9    20  37    5.48   414.0    7.4      42.611
2014    9        9    20  43    5.48   414.0    7.4      42.605
2014    9        9    20  48    5.48   414.0    7.4      42.599
2014    9        9    20  54    5.48   414.0    7.4      42.594
2014    9        9    21   0    5.48   414.0    7.4      42.588
2014    9        9    21   5    5.48   414.0    7.4      42.583
2014    9        9    21  11    5.48   414.0    7.4      42.577
2014    9        9    21  17    5.48   414.0    7.4      42.572
2014    9        9    21  22    5.47   414.0    7.4      42.567
2014    9        9    21  28    5.47   414.0    7.4      42.562
2014    9        9    21  33    5.47   414.0    7.4      42.556
2014    9        9    21  39    5.47   414.0    7.4      42.551
2014    9        9    21  45    5.47   414.1    7.4      42.547
2014    9        9    21  50    5.47   414.1    7.4      42.542
2014    9        9    21  56    5.47   414.1    7.4      42.537
2014    9        9    22   2    5.47   414.1    7.4      42.533
2014    9        9    22   7    5.47   414.1    7.4      42.528
2014    9        9    22  13    5.47   414.1    7.4      42.524
2014    9        9    22  19    5.47   414.1    7.4      42.520
2014    9        9    22  24    5.47   414.1    7.4      42.516
2014    9        9    22  30    5.47   414.1    7.4      42.512
2014    9        9    22  36    5.47   414.1    7.4      42.508
2014    9        9    22  41    5.47   414.1    7.4      42.505
2014    9        9    22  47    5.46   414.1    7.4      42.501
2014    9        9    22  52    5.46   414.1    7.4      42.498
2014    9        9    22  58    5.46   414.1    7.4      42.495
2014    9        9    23   4    5.46   414.1    7.4      42.492
2014    9        9    23   9    5.46   414.1    7.4      42.489
2014    9        9    23  15    5.46   414.1    7.4      42.486
2014    9        9    23  21    5.46   414.1    7.4      42.484
2014    9        9    23  26    5.46   414.1    7.4      42.482
2014    9        9    23  32    5.46   414.1    7.4      42.480
2014    9        9    23  38    5.46   414.1    7.4      42.478
2014    9        9    23  43    5.46   414.1    7.4      42.476
2014    9        9    23  49    5.46   414.1    7.4      42.474
2014    9        9    23  55    5.46   414.1    7.4      42.473
2014    9       10     0   0    5.46   414.1    7.4      42.471
2014    9       10     0   6    5.46   414.1    7.4      42.470
2014    9       10     0  11    5.46   414.1    7.4      42.469
2014    9       10     0  17    5.46   414.1    7.4      42.468
2014    9       10     0  23    5.46   414.1    7.4      42.468
2014    9       10     0  28    5.46   414.1    7.4      42.467
2014    9       10     0  34    5.46   414.1    7.4      42.467
2014    9       10     0  40    5.46   414.1    7.4      42.467
2014    9       10     0  45    5.46   414.1    7.4      42.466
2014    9       10     0  51    5.45   414.1    7.4      42.466
2014    9       10     0  57    5.45   414.1    7.4      42.466
2014    9       10     1   2    5.45   414.1    7.4      42.466
2014    9       10     1   8    5.45   414.1    7.4      42.465
2014    9       10     1  13    5.45   414.1    7.4      42.465
2014    9       10     1  19    5.45   414.1    7.4      42.465
2014    9       10     1  25    5.45   414.1    7.4      42.464
2014    9       10     1  30    5.45   414.1    7.4      42.464
2014    9       10     1  36    5.45   414.1    7.4      42.463
2014    9       10     1  42    5.45   414.1    7.4      42.462
2014    9       10     1  47    5.45   414.1    7.4      42.462
2014    9       10     1  53    5.45   414.1    7.4      42.461
2014    9       10     1  59    5.45   414.1    7.4      42.460
2014    9       10     2   4    5.45   414.1    7.4      42.459
2014    9       10     2  10    5.45   414.1    7.4      42.458
2014    9       10     2  16    5.45   414.1    7.4      42.457
2014    9       10     2  21    5.45   414.1    7.4      42.456
2014    9       10     2  27    5.45   414.1    7.4      42.455
2014    9       10     2  32    5.45   414.1    7.4      42.454
2014    9       10     2  38    5.45   414.1    7.4      42.453
2014    9       10     2  44    5.45   414.1    7.4      42.452
2014    9       10     2  49    5.45   414.1    7.4      42.450
2014    9       10     2  55    5.45   414.1    7.4      42.449
2014    9       10     3   1    5.45   414.1    7.4      42.448
2014    9       10     3   6    5.45   414.1    7.4      42.447
2014    9       10     3  12    5.45   414.1    7.4      42.445
2014    9       10     3  18    5.45   414.1    7.4      42.444
2014    9       10     3  23    5.45   414.1    7.4      42.443
2014    9       10     3  29    5.45   414.1    7.4      42.441
2014    9       10     3  35    5.45   414.1    7.4      42.440
2014    9       10     3  40    5.45   414.1    7.4      42.439
2014    9       10     3  46    5.45   414.1    7.4      42.438
2014    9       10     3  51    5.45   414.1    7.4      42.437
2014    9       10     3  57    5.45   414.1    7.4      42.435
2014    9       10     4   3    5.45   414.1    7.4      42.434
2014    9       10     4   8    5.45   414.1    7.4      42.434
2014    9       10     4  14    5.45   414.1    7.4      42.433
2014    9       10     4  20    5.45   414.1    7.4      42.432
2014    9       10     4  25    5.45   414.2    7.4      42.431
2014    9       10     4  31    5.45   414.2    7.4      42.431
2014    9       10     4  37    5.45   414.2    7.4      42.430
2014    9       10     4  42    5.45   414.2    7.4      42.430
2014    9       10     4  48    5.45   414.2    7.4      42.430
2014    9       10     4  53    5.45   414.2    7.4      42.430
2014    9       10     4  59    5.45   414.2    7.4      42.430
2014    9       10     5   5    5.45   414.2    7.4      42.430
2014    9       10     5  10    5.45   414.2    7.4      42.431
2014    9       10     5  16    5.45   414.2    7.4      42.431
2014    9       10     5  22    5.45   414.2    7.4      42.432
2014    9       10     5  27    5.45   414.2    7.4      42.432
2014    9       10     5  33    5.45   414.2    7.4      42.433
2014    9       10     5  39    5.45   414.2    7.4      42.434
2014    9       10     5  44    5.45   414.2    7.4      42.436
2014    9       10     5  50    5.45   414.2    7.4      42.437
2014    9       10     5  56    5.45   414.2    7.4      42.439
2014    9       10     6   1    5.45   414.2    7.4      42.441
2014    9       10     6   7    5.45   414.2    7.4      42.443
2014    9       10     6  12    5.45   414.2    7.4      42.445
2014    9       10     6  18    5.45   414.2    7.4      42.447
2014    9       10     6  24    5.45   414.2    7.4      42.450
2014    9       10     6  29    5.45   414.2    7.4      42.452
2014    9       10     6  35    5.45   414.2    7.4      42.455
2014    9       10     6  41    5.45   414.3    7.4      42.458
2014    9       10     6  46    5.45   414.3    7.4      42.461
2014    9       10     6  52    5.45   414.3    7.4      42.465
2014    9       10     6  58    5.45   414.3    7.4      42.468
2014    9       10     7   3    5.45   414.3    7.4      42.472
2014    9       10     7   9    5.45   414.3    7.4      42.476
2014    9       10     7  15    5.45   414.3    7.4      42.480
2014    9       10     7  20    5.45   414.3    7.4      42.485
2014    9       10     7  26    5.45   414.3    7.4      42.489
2014    9       10     7  31    5.45   414.3    7.4      42.494
2014    9       10     7  37    5.45   414.3    7.4      42.499
2014    9       10     7  43    5.45   414.3    7.4      42.504
2014    9       10     7  48    5.45   414.3    7.4      42.509
2014    9       10     7  54    5.45   414.4    7.4      42.514
2014    9       10     8   0    5.45   414.4    7.4      42.519
2014    9       10     8   5    5.45   414.4    7.4      42.525
2014    9       10     8  11    5.45   414.4    7.4      42.530
2014    9       10     8  17    5.45   414.4    7.4      42.536
2014    9       10     8  22    5.46   414.4    7.4      42.542
2014    9       10     8  28    5.46   414.4    7.4      42.547
2014    9       10     8  33    5.46   414.4    7.4      42.553
2014    9       10     8  39    5.46   414.4    7.4      42.559
2014    9       10     8  45    5.46   414.5    7.4      42.565
2014    9       10     8  50    5.46   414.5    7.4      42.571
2014    9       10     8  56    5.46   414.5    7.4      42.578
2014    9       10     9   2    5.46   414.5    7.4      42.584
2014    9       10     9   7    5.46   414.5    7.4      42.590
2014    9       10     9  13    5.46   414.5    7.4      42.596
2014    9       10     9  19    5.46   414.5    7.4      42.602
2014    9       10     9  24    5.46   414.5    7.4      42.608
2014    9       10     9  30    5.46   414.6    7.4      42.614
2014    9       10     9  36    5.46   414.6    7.4      42.620
2014    9       10     9  41    5.46   414.6    7.5      42.626
2014    9       10     9  47    5.46   414.6    7.5      42.632
2014    9       10     9  52    5.46   414.6    7.5      42.638
2014    9       10     9  58    5.46   414.6    7.5      42.644
2014    9       10    10   4    5.46   414.6    7.5      42.650
2014    9       10    10   9    5.46   414.6    7.5      42.656
2014    9       10    10  15    5.46   414.7    7.5      42.661
2014    9       10    10  21    5.47   414.7    7.5      42.667
2014    9       10    10  26    5.47   414.7    7.5      42.673
2014    9       10    10  32    5.47   414.7    7.5      42.679
2014    9       10    10  38    5.47   414.7    7.5      42.684
2014    9       10    10  43    5.47   414.7    7.5      42.690
2014    9       10    10  49    5.47   414.7    7.5      42.696
2014    9       10    10  55    5.47   414.8    7.5      42.701
2014    9       10    11   0    5.47   414.8    7.5      42.707
2014    9       10    11   6    5.47   414.8    7.5      42.712
2014    9       10    11  11    5.47   414.8    7.5      42.718
2014    9       10    11  17    5.47   414.8    7.5      42.724
2014    9       10    11  23    5.47   414.8    7.5      42.730
2014    9       10    11  28    5.47   414.8    7.5      42.736
2014    9       10    11  34    5.47   414.9    7.5      42.742
2014    9       10    11  40    5.47   414.9    7.5      42.748
2014    9       10    11  45    5.47   414.9    7.5      42.754
2014    9       10    11  51    5.47   414.9    7.5      42.761
2014    9       10    11  57    5.48   414.9    7.5      42.767
2014    9       10    12   2    5.48   414.9    7.5      42.774
2014    9       10    12   8    5.48   415.0    7.5      42.781
2014    9       10    12  13    5.48   415.0    7.5      42.788
2014    9       10    12  19    5.48   415.0    7.5      42.795
2014    9       10    12  25    5.48   415.0    7.5      42.802
2014    9       10    12  30    5.48   415.0    7.5      42.809
2014    9       10    12  36    5.48   415.1    7.5      42.817
2014    9       10    12  42    5.48   415.1    7.5      42.825
2014    9       10    12  47    5.48   415.1    7.5      42.833
2014    9       10    12  53    5.48   415.1    7.5      42.841
2014    9       10    12  59    5.48   415.1    7.5      42.849
2014    9       10    13   4    5.48   415.2    7.5      42.858
2014    9       10    13  10    5.49   415.2    7.5      42.867
2014    9       10    13  16    5.49   415.2    7.5      42.875
2014    9       10    13  21    5.49   415.2    7.5      42.884
2014    9       10    13  27    5.49   415.2    7.5      42.894
2014    9       10    13  32    5.49   415.3    7.5      42.903
2014    9       10    13  38    5.49   415.3    7.5      42.913
2014    9       10    13  44    5.49   415.3    7.5      42.922
2014    9       10    13  49    5.49   415.3    7.5      42.932
2014    9       10    13  55    5.49   415.4    7.5      42.942
2014    9       10    14   1    5.49   415.4    7.5      42.952
2014    9       10    14   6    5.49   415.4    7.5      42.963
2014    9       10    14  12    5.50   415.4    7.5      42.973
2014    9       10    14  18    5.50   415.4    7.5      42.984
2014    9       10    14  23    5.50   415.5    7.5      42.995
2014    9       10    14  29    5.50   415.5    7.5      43.006
2014    9       10    14  35    5.50   415.5    7.5      43.017
2014    9       10    14  40    5.50   415.5    7.5      43.029
2014    9       10    14  46    5.50   415.6    7.5      43.041
2014    9       10    14  51    5.50   415.6    7.5      43.053
2014    9       10    14  57    5.51   415.6    7.5      43.065
2014    9       10    15   3    5.51   415.7    7.5      43.079
2014    9       10    15   8    5.51   415.7    7.5      43.092
2014    9       10    15  14    5.51   415.7    7.5      43.107
2014    9       10    15  20    5.51   415.8    7.5      43.122
2014    9       10    15  25    5.51   415.8    7.5      43.138
2014    9       10    15  31    5.51   415.8    7.5      43.154
2014    9       10    15  37    5.51   415.9    7.6      43.170
2014    9       10    15  42    5.52   415.9    7.6      43.187
2014    9       10    15  48    5.52   415.9    7.6      43.203
2014    9       10    15  53    5.52   416.0    7.6      43.220
2014    9       10    15  59    5.52   416.0    7.6      43.236
2014    9       10    16   5    5.52   416.0    7.6      43.252
2014    9       10    16  10    5.52   416.1    7.6      43.268
2014    9       10    16  16    5.52   416.1    7.6      43.284
2014    9       10    16  22    5.52   416.2    7.6      43.300
2014    9       10    16  27    5.52   416.2    7.6      43.316
2014    9       10    16  33    5.53   416.2    7.6      43.332
2014    9       10    16  39    5.53   416.3    7.6      43.347
2014    9       10    16  44    5.53   416.3    7.6      43.363
2014    9       10    16  50    5.53   416.4    7.6      43.378
2014    9       10    16  56    5.53   416.4    7.6      43.393
2014    9       10    17   1    5.53   416.4    7.6      43.408
2014    9       10    17   7    5.53   416.5    7.6      43.423
2014    9       10    17  12    5.53   416.5    7.6      43.438
2014    9       10    17  18    5.53   416.6    7.6      43.453
2014    9       10    17  24    5.53   416.6    7.6      43.467
2014    9       10    17  29    5.54   416.6    7.6      43.481
2014    9       10    17  35    5.54   416.7    7.6      43.496
2014    9       10    17  41    5.54   416.7    7.6      43.510
2014    9       10    17  46    5.54   416.8    7.6      43.523
2014    9       10    17  52    5.54   416.8    7.6      43.537
2014    9       10    17  58    5.54   416.8    7.6      43.551
2014    9       10    18   3    5.54   416.9    7.6      43.564
2014    9       10    18   9    5.54   416.9    7.6      43.578
2014    9       10    18  15    5.54   416.9    7.6      43.591
2014    9       10    18  20    5.54   417.0    7.6      43.604
2014    9       10    18  26    5.55   417.0    7.6      43.617
2014    9       10    18  31    5.55   417.1    7.6      43.630
2014    9       10    18  37    5.55   417.1    7.6      43.643
2014    9       10    18  43    5.55   417.2    7.6      43.657
2014    9       10    18  48    5.55   417.2    7.6      43.670
2014    9       10    18  54    5.55   417.2    7.6      43.683
2014    9       10    19   0    5.55   417.3    7.6      43.696
2014    9       10    19   5    5.55   417.3    7.6      43.710
2014    9       10    19  11    5.55   417.4    7.6      43.723
2014    9       10    19  17    5.55   417.4    7.6      43.737
2014    9       10    19  22    5.56   417.4    7.6      43.751
2014    9       10    19  28    5.56   417.5    7.6      43.765
2014    9       10    19  34    5.56   417.5    7.6      43.779
2014    9       10    19  39    5.56   417.6    7.6      43.793
2014    9       10    19  45    5.56   417.6    7.6      43.808
2014    9       10    19  50    5.56   417.7    7.6      43.823
2014    9       10    19  56    5.56   417.7    7.6      43.838
2014    9       10    20   2    5.56   417.8    7.6      43.853
2014    9       10    20   7    5.56   417.8    7.6      43.868
2014    9       10    20  13    5.57   417.9    7.6      43.884
2014    9       10    20  19    5.57   417.9    7.6      43.900
2014    9       10    20  24    5.57   418.0    7.6      43.916
2014    9       10    20  30    5.57   418.0    7.6      43.932
2014    9       10    20  36    5.57   418.1    7.6      43.949
2014    9       10    20  41    5.57   418.1    7.6      43.965
2014    9       10    20  47    5.57   418.1    7.6      43.982
2014    9       10    20  52    5.57   418.2    7.6      43.999
2014    9       10    20  58    5.58   418.3    7.6      44.016
2014    9       10    21   4    5.58   418.3    7.6      44.034
2014    9       10    21   9    5.58   418.4    7.6      44.052
2014    9       10    21  15    5.58   418.4    7.6      44.071
2014    9       10    21  21    5.58   418.5    7.6      44.090
2014    9       10    21  26    5.58   418.5    7.7      44.110
2014    9       10    21  32    5.58   418.6    7.7      44.130
2014    9       10    21  38    5.59   418.6    7.7      44.150
2014    9       10    21  43    5.59   418.7    7.7      44.170
2014    9       10    21  49    5.59   418.8    7.7      44.190
2014    9       10    21  55    5.59   418.8    7.7      44.209
2014    9       10    22   0    5.59   418.9    7.7      44.229
2014    9       10    22   6    5.59   418.9    7.7      44.248
2014    9       10    22  11    5.59   419.0    7.7      44.267
2014    9       10    22  17    5.59   419.1    7.7      44.286
2014    9       10    22  23    5.60   419.1    7.7      44.304
2014    9       10    22  28    5.60   419.2    7.7      44.323
2014    9       10    22  34    5.60   419.2    7.7      44.341
2014    9       10    22  40    5.60   419.3    7.7      44.359
2014    9       10    22  45    5.60   419.4    7.7      44.377
2014    9       10    22  51    5.60   419.4    7.7      44.395
2014    9       10    22  57    5.60   419.5    7.7      44.413
2014    9       10    23   2    5.60   419.5    7.7      44.430
2014    9       10    23   8    5.61   419.6    7.7      44.448
2014    9       10    23  14    5.61   419.6    7.7      44.465
2014    9       10    23  19    5.61   419.7    7.7      44.482
2014    9       10    23  25    5.61   419.8    7.7      44.499
2014    9       10    23  30    5.61   419.8    7.7      44.516
2014    9       10    23  36    5.61   419.9    7.7      44.533
2014    9       10    23  42    5.61   419.9    7.7      44.550
2014    9       10    23  47    5.61   420.0    7.7      44.568
2014    9       10    23  53    5.62   420.1    7.7      44.585
2014    9       10    23  59    5.62   420.1    7.7      44.602
2014    9       11     0   4    5.62   420.2    7.7      44.619
2014    9       11     0  10    5.62   420.2    7.7      44.636
2014    9       11     0  16    5.62   420.3    7.7      44.654
2014    9       11     0  21    5.62   420.3    7.7      44.672
2014    9       11     0  27    5.62   420.4    7.7      44.689
2014    9       11     0  32    5.62   420.5    7.7      44.708
2014    9       11     0  38    5.63   420.5    7.7      44.727
2014    9       11     0  44    5.63   420.6    7.7      44.746
2014    9       11     0  49    5.63   420.7    7.7      44.766
2014    9       11     0  55    5.63   420.7    7.7      44.787
2014    9       11     1   1    5.63   420.8    7.7      44.808
2014    9       11     1   6    5.63   420.9    7.7      44.829
2014    9       11     1  12    5.63   420.9    7.7      44.850
2014    9       11     1  18    5.63   421.0    7.7      44.871
2014    9       11     1  23    5.64   421.0    7.7      44.892
2014    9       11     1  29    5.64   421.1    7.7      44.913
2014    9       11     1  35    5.64   421.2    7.7      44.933
2014    9       11     1  40    5.64   421.2    7.7      44.954
2014    9       11     1  46    5.64   421.3    7.7      44.974
2014    9       11     1  51    5.64   421.4    7.7      44.994
2014    9       11     1  57    5.64   421.4    7.7      45.014
2014    9       11     2   3    5.64   421.5    7.7      45.034
2014    9       11     2   8    5.65   421.6    7.7      45.054
2014    9       11     2  14    5.65   421.6    7.7      45.073
2014    9       11     2  20    5.65   421.7    7.7      45.093
2014    9       11     2  25    5.65   421.8    7.7      45.113
2014    9       11     2  31    5.65   421.8    7.7      45.133
2014    9       11     2  37    5.65   421.9    7.7      45.153
2014    9       11     2  42    5.65   422.0    7.7      45.173
2014    9       11     2  48    5.65   422.0    7.7      45.193
2014    9       11     2  54    5.65   422.1    7.7      45.214
2014    9       11     2  59    5.66   422.2    7.7      45.234
2014    9       11     3   5    5.66   422.3    7.7      45.254
2014    9       11     3  10    5.66   422.3    7.7      45.274
2014    9       11     3  16    5.66   422.4    7.7      45.294
2014    9       11     3  22    5.66   422.5    7.7      45.313
2014    9       11     3  27    5.66   422.5    7.7      45.333
2014    9       11     3  33    5.66   422.6    7.7      45.352
2014    9       11     3  39    5.66   422.7    7.7      45.370
2014    9       11     3  44    5.66   422.7    7.7      45.389
2014    9       11     3  50    5.67   422.8    7.7      45.408
2014    9       11     3  56    5.67   422.9    7.7      45.426
2014    9       11     4   1    5.67   423.0    7.7      45.445
2014    9       11     4   7    5.67   423.0    7.7      45.463
2014    9       11     4  12    5.67   423.1    7.7      45.481
2014    9       11     4  18    5.67   423.2    7.7      45.499
2014    9       11     4  24    5.67   423.2    7.7      45.518
2014    9       11     4  29    5.67   423.3    7.7      45.536
2014    9       11     4  35    5.67   423.4    7.7      45.554
2014    9       11     4  41    5.68   423.5    7.7      45.573
2014    9       11     4  46    5.68   423.5    7.7      45.591
2014    9       11     4  52    5.68   423.6    7.7      45.609
2014    9       11     4  58    5.68   423.7    7.7      45.628
2014    9       11     5   3    5.68   423.8    7.7      45.647
2014    9       11     5   9    5.68   423.8    7.7      45.666
2014    9       11     5  15    5.68   423.9    7.7      45.685
2014    9       11     5  20    5.68   424.0    7.7      45.704
2014    9       11     5  26    5.69   424.1    7.7      45.724
2014    9       11     5  31    5.69   424.1    7.8      45.744
2014    9       11     5  37    5.69   424.2    7.8      45.764
2014    9       11     5  43    5.69   424.3    7.8      45.785
2014    9       11     5  48    5.69   424.4    7.8      45.805
2014    9       11     5  54    5.69   424.5    7.8      45.826
2014    9       11     6   0    5.69   424.5    7.8      45.847
2014    9       11     6   5    5.70   424.6    7.8      45.868
2014    9       11     6  11    5.70   424.7    7.8      45.889
2014    9       11     6  17    5.70   424.8    7.8      45.910
2014    9       11     6  22    5.70   424.9    7.8      45.931
2014    9       11     6  28    5.70   424.9    7.8      45.952
2014    9       11     6  34    5.70   425.0    7.8      45.973
2014    9       11     6  39    5.70   425.1    7.8      45.994
2014    9       11     6  45    5.71   425.2    7.8      46.015
2014    9       11     6  50    5.71   425.2    7.8      46.036
2014    9       11     6  56    5.71   425.3    7.8      46.057
2014    9       11     7   2    5.71   425.4    7.8      46.079
2014    9       11     7   7    5.71   425.5    7.8      46.100
2014    9       11     7  13    5.71   425.6    7.8      46.122
2014    9       11     7  19    5.71   425.6    7.8      46.144
2014    9       11     7  24    5.72   425.7    7.8      46.167
2014    9       11     7  30    5.72   425.8    7.8      46.191
2014    9       11     7  36    5.72   425.9    7.8      46.215
2014    9       11     7  41    5.72   426.0    7.8      46.240
2014    9       11     7  47    5.72   426.0    7.8      46.267
2014    9       11     7  52    5.72   426.1    7.8      46.295
2014    9       11     7  58    5.73   426.2    7.8      46.323
2014    9       11     8   4    5.73   426.3    7.8      46.353
2014    9       11     8   9    5.73   426.4    7.8      46.383
2014    9       11     8  15    5.73   426.5    7.8      46.413
2014    9       11     8  21    5.73   426.6    7.8      46.443
2014    9       11     8  26    5.73   426.7    7.8      46.473
2014    9       11     8  32    5.74   426.8    7.8      46.502
2014    9       11     8  38    5.74   426.9    7.8      46.530
2014    9       11     8  43    5.74   427.0    7.8      46.558
2014    9       11     8  49    5.74   427.1    7.8      46.586
2014    9       11     8  55    5.74   427.2    7.8      46.612
2014    9       11     9   0    5.74   427.3    7.8      46.638
2014    9       11     9   6    5.74   427.4    7.8      46.663
2014    9       11     9  11    5.74   427.4    7.8      46.688
2014    9       11     9  17    5.75   427.5    7.8      46.712
2014    9       11     9  23    5.75   427.6    7.8      46.735
2014    9       11     9  28    5.75   427.7    7.8      46.758
2014    9       11     9  34    5.75   427.8    7.8      46.780
2014    9       11     9  40    5.75   427.9    7.8      46.802
2014    9       11     9  45    5.75   428.0    7.8      46.823
2014    9       11     9  51    5.75   428.1    7.8      46.844
2014    9       11     9  57    5.75   428.2    7.8      46.865
2014    9       11    10   2    5.76   428.3    7.8      46.885
2014    9       11    10   8    5.76   428.4    7.8      46.904
2014    9       11    10  14    5.76   428.5    7.8      46.923
2014    9       11    10  19    5.76   428.5    7.8      46.942
2014    9       11    10  25    5.76   428.6    7.8      46.961
2014    9       11    10  30    5.76   428.7    7.8      46.979
2014    9       11    10  36    5.76   428.8    7.8      46.998
2014    9       11    10  42    5.76   428.9    7.8      47.015
2014    9       11    10  47    5.77   429.0    7.8      47.033
2014    9       11    10  53    5.77   429.1    7.8      47.050
2014    9       11    10  59    5.77   429.2    7.8      47.068
2014    9       11    11   4    5.77   429.3    7.8      47.085
2014    9       11    11  10    5.77   429.4    7.8      47.102
2014    9       11    11  16    5.77   429.4    7.8      47.119
2014    9       11    11  21    5.77   429.5    7.8      47.136
2014    9       11    11  27    5.77   429.6    7.8      47.153
2014    9       11    11  32    5.78   429.7    7.8      47.170
2014    9       11    11  38    5.78   429.8    7.8      47.187
2014    9       11    11  44    5.78   429.9    7.8      47.204
2014    9       11    11  49    5.78   430.0    7.8      47.221
2014    9       11    11  55    5.78   430.1    7.8      47.238
2014    9       11    12   1    5.78   430.2    7.8      47.256
2014    9       11    12   6    5.78   430.3    7.8      47.274
2014    9       11    12  12    5.79   430.4    7.8      47.292
2014    9       11    12  18    5.79   430.5    7.8      47.310
2014    9       11    12  23    5.79   430.6    7.8      47.329
2014    9       11    12  29    5.79   430.7    7.8      47.347
2014    9       11    12  35    5.79   430.8    7.8      47.367
2014    9       11    12  40    5.79   430.9    7.8      47.386
2014    9       11    12  46    5.79   431.0    7.8      47.407
2014    9       11    12  51    5.80   431.1    7.8      47.427
2014    9       11    12  57    5.80   431.2    7.8      47.448
2014    9       11    13   3    5.80   431.3    7.8      47.470
2014    9       11    13   8    5.80   431.4    7.8      47.492
2014    9       11    13  14    5.80   431.5    7.8      47.514
2014    9       11    13  20    5.80   431.6    7.8      47.537
2014    9       11    13  25    5.81   431.7    7.8      47.559
2014    9       11    13  31    5.81   431.8    7.8      47.583
2014    9       11    13  37    5.81   431.9    7.8      47.606
2014    9       11    13  42    5.81   432.0    7.8      47.630
2014    9       11    13  48    5.81   432.1    7.8      47.654
2014    9       11    13  54    5.82   432.2    7.8      47.678
2014    9       11    13  59    5.82   432.3    7.8      47.703
2014    9       11    14   5    5.82   432.4    7.8      47.728
2014    9       11    14  10    5.82   432.5    7.8      47.754
2014    9       11    14  16    5.82   432.6    7.8      47.781
2014    9       11    14  22    5.82   432.8    7.8      47.808
2014    9       11    14  27    5.83   432.9    7.8      47.835
2014    9       11    14  33    5.83   433.0    7.8      47.864
2014    9       11    14  39    5.83   433.1    7.8      47.893
2014    9       11    14  44    5.83   433.2    7.8      47.923
2014    9       11    14  50    5.83   433.3    7.8      47.953
2014    9       11    14  56    5.83   433.5    7.8      47.984
2014    9       11    15   1    5.84   433.6    7.8      48.014
2014    9       11    15   7    5.84   433.7    7.8      48.044
2014    9       11    15  12    5.84   433.8    7.8      48.074
2014    9       11    15  18    5.84   433.9    7.8      48.104
2014    9       11    15  24    5.84   434.1    7.8      48.134
2014    9       11    15  29    5.84   434.2    7.8      48.163
2014    9       11    15  35    5.84   434.3    7.8      48.193
2014    9       11    15  41    5.85   434.4    7.8      48.222
2014    9       11    15  46    5.85   434.5    7.8      48.250
2014    9       11    15  52    5.85   434.7    7.8      48.278
2014    9       11    15  58    5.85   434.8    7.8      48.306
2014    9       11    16   3    5.85   434.9    7.8      48.334
2014    9       11    16   9    5.85   435.0    7.8      48.361
2014    9       11    16  15    5.85   435.1    7.8      48.389
2014    9       11    16  20    5.86   435.3    7.8      48.415
2014    9       11    16  26    5.86   435.4    7.8      48.442
2014    9       11    16  31    5.86   435.5    7.8      48.469
2014    9       11    16  37    5.86   435.6    7.8      48.495
2014    9       11    16  43    5.86   435.7    7.8      48.521
2014    9       11    16  48    5.86   435.9    7.8      48.547
2014    9       11    16  54    5.86   436.0    7.8      48.573
2014    9       11    17   0    5.87   436.1    7.8      48.598
2014    9       11    17   5    5.87   436.2    7.8      48.624
2014    9       11    17  11    5.87   436.3    7.8      48.649
2014    9       11    17  17    5.87   436.4    7.8      48.675
2014    9       11    17  22    5.87   436.6    7.8      48.700
2014    9       11    17  28    5.87   436.7    7.8      48.725
2014    9       11    17  34    5.87   436.8    7.8      48.750
2014    9       11    17  39    5.88   436.9    7.8      48.776
2014    9       11    17  45    5.88   437.1    7.8      48.801
2014    9       11    17  50    5.88   437.2    7.8      48.827
2014    9       11    17  56    5.88   437.3    7.8      48.853
2014    9       11    18   2    5.88   437.4    7.8      48.880
2014    9       11    18   7    5.88   437.6    7.8      48.906
2014    9       11    18  13    5.88   437.7    7.8      48.932
2014    9       11    18  19    5.89   437.8    7.8      48.959
2014    9       11    18  24    5.89   437.9    7.8      48.985
2014    9       11    18  30    5.89   438.1    7.8      49.011
2014    9       11    18  36    5.89   438.2    7.8      49.037
2014    9       11    18  41    5.89   438.3    7.8      49.063
2014    9       11    18  47    5.89   438.4    7.8      49.089
2014    9       11    18  52    5.89   438.6    7.8      49.115
2014    9       11    18  58    5.90   438.7    7.8      49.141
2014    9       11    19   4    5.90   438.8    7.8      49.166
2014    9       11    19   9    5.90   438.9    7.8      49.192
2014    9       11    19  15    5.90   439.1    7.8      49.218
2014    9       11    19  21    5.90   439.2    7.8      49.243
2014    9       11    19  26    5.90   439.3    7.8      49.268
2014    9       11    19  32    5.90   439.5    7.8      49.294
2014    9       11    19  38    5.90   439.6    7.8      49.319
2014    9       11    19  43    5.91   439.7    7.8      49.344
2014    9       11    19  49    5.91   439.9    7.8      49.370
2014    9       11    19  55    5.91   440.0    7.8      49.395
2014    9       11    20   0    5.91   440.1    7.8      49.421
2014    9       11    20   6    5.91   440.2    7.8      49.446
2014    9       11    20  11    5.91   440.4    7.8      49.472
2014    9       11    20  17    5.91   440.5    7.8      49.497
2014    9       11    20  23    5.92   440.6    7.8      49.523
2014    9       11    20  28    5.92   440.8    7.8      49.549
2014    9       11    20  34    5.92   440.9    7.8      49.575
2014    9       11    20  40    5.92   441.0    7.8      49.601
2014    9       11    20  45    5.92   441.2    7.8      49.627
2014    9       11    20  51    5.92   441.3    7.8      49.653
2014    9       11    20  57    5.93   441.4    7.8      49.680
2014    9       11    21   2    5.93   441.6    7.8      49.706
2014    9       11    21   8    5.93   441.7    7.8      49.733
2014    9       11    21  14    5.93   441.8    7.8      49.761
2014    9       11    21  19    5.93   442.0    7.8      49.788
2014    9       11    21  25    5.93   442.1    7.8      49.816
2014    9       11    21  30    5.93   442.2    7.8      49.844
2014    9       11    21  36    5.94   442.4    7.8      49.874
2014    9       11    21  42    5.94   442.5    7.8      49.904
2014    9       11    21  47    5.94   442.7    7.8      49.936
2014    9       11    21  53    5.94   442.8    7.8      49.968
2014    9       11    21  59    5.94   443.0    7.8      50.001
2014    9       11    22   4    5.94   443.1    7.8      50.035
2014    9       11    22  10    5.94   443.3    7.8      50.069
2014    9       11    22  16    5.95   443.4    7.8      50.103
2014    9       11    22  21    5.95   443.5    7.8      50.137
2014    9       11    22  27    5.95   443.7    7.8      50.171
2014    9       11    22  32    5.95   443.8    7.8      50.204
2014    9       11    22  38    5.95   444.0    7.8      50.237
2014    9       11    22  44    5.95   444.1    7.8      50.270
2014    9       11    22  49    5.95   444.3    7.8      50.303
2014    9       11    22  55    5.95   444.4    7.8      50.336
2014    9       11    23   1    5.96   444.6    7.8      50.368
2014    9       11    23   6    5.96   444.7    7.8      50.401
2014    9       11    23  12    5.96   444.9    7.8      50.433
2014    9       11    23  18    5.96   445.0    7.7      50.465
2014    9       11    23  23    5.96   445.2    7.7      50.498
2014    9       11    23  29    5.96   445.3    7.7      50.530
2014    9       11    23  35    5.96   445.5    7.7      50.563
2014    9       11    23  40    5.96   445.6    7.7      50.595
2014    9       11    23  46    5.96   445.8    7.7      50.628
2014    9       11    23  51    5.97   445.9    7.7      50.661
2014    9       11    23  57    5.97   446.0    7.7      50.694
2014    9       12     0   3    5.97   446.2    7.7      50.728
