year    month   day   hour  minute  B_enl V_enl   n_enl       T_enl
[year] [month] [day] [hour][minute] [nT]  [km/s]  [cm-3]      [kK]
2013    6        3     0   0    3.64   645.0    2.9      60.169
2013    6        3     0   6    3.64   644.9    2.9      60.131
2013    6        3     0  13    3.64   644.9    2.9      60.092
2013    6        3     0  19    3.64   644.8    2.9      60.054
2013    6        3     0  26    3.63   644.8    2.9      60.016
2013    6        3     0  32    3.63   644.7    2.9      59.977
2013    6        3     0  39    3.63   644.7    2.9      59.939
2013    6        3     0  45    3.62   644.6    2.9      59.900
2013    6        3     0  52    3.62   644.6    2.9      59.861
2013    6        3     0  58    3.62   644.5    2.9      59.822
2013    6        3     1   5    3.61   644.5    2.9      59.783
2013    6        3     1  11    3.61   644.4    2.9      59.744
2013    6        3     1  18    3.61   644.4    2.9      59.705
2013    6        3     1  25    3.61   644.4    2.9      59.666
2013    6        3     1  31    3.60   644.3    2.9      59.627
2013    6        3     1  38    3.60   644.2    2.9      59.587
2013    6        3     1  44    3.60   644.2    2.9      59.548
2013    6        3     1  51    3.59   644.1    2.9      59.508
2013    6        3     1  57    3.59   644.1    2.9      59.469
2013    6        3     2   4    3.59   644.0    2.9      59.429
2013    6        3     2  10    3.59   644.0    2.9      59.390
2013    6        3     2  17    3.58   643.9    2.9      59.350
2013    6        3     2  23    3.58   643.9    2.9      59.311
2013    6        3     2  30    3.58   643.8    2.9      59.271
2013    6        3     2  37    3.57   643.7    2.9      59.232
2013    6        3     2  43    3.57   643.7    2.9      59.192
2013    6        3     2  50    3.57   643.6    2.9      59.152
2013    6        3     2  56    3.57   643.6    2.9      59.113
2013    6        3     3   3    3.56   643.5    2.9      59.073
2013    6        3     3   9    3.56   643.4    2.9      59.034
2013    6        3     3  16    3.56   643.4    2.9      58.994
2013    6        3     3  22    3.56   643.3    2.9      58.955
2013    6        3     3  29    3.55   643.2    2.9      58.915
2013    6        3     3  35    3.55   643.1    2.9      58.876
2013    6        3     3  42    3.55   643.1    2.9      58.837
2013    6        3     3  49    3.54   643.0    2.9      58.797
2013    6        3     3  55    3.54   642.9    2.9      58.758
2013    6        3     4   2    3.54   642.9    2.9      58.719
2013    6        3     4   8    3.54   642.8    2.9      58.680
2013    6        3     4  15    3.53   642.7    2.9      58.641
2013    6        3     4  21    3.53   642.6    2.9      58.603
2013    6        3     4  28    3.53   642.5    2.9      58.564
2013    6        3     4  34    3.53   642.5    2.9      58.526
2013    6        3     4  41    3.52   642.4    2.9      58.488
2013    6        3     4  48    3.52   642.3    2.9      58.450
2013    6        3     4  54    3.52   642.2    2.9      58.413
2013    6        3     5   1    3.52   642.1    2.8      58.376
2013    6        3     5   7    3.51   642.1    2.8      58.340
2013    6        3     5  14    3.51   642.0    2.8      58.304
2013    6        3     5  20    3.51   641.9    2.8      58.268
2013    6        3     5  27    3.51   641.8    2.8      58.232
2013    6        3     5  33    3.50   641.7    2.8      58.197
2013    6        3     5  40    3.50   641.6    2.8      58.163
2013    6        3     5  46    3.50   641.6    2.8      58.128
2013    6        3     5  53    3.50   641.5    2.8      58.094
2013    6        3     6   0    3.50   641.4    2.8      58.061
2013    6        3     6   6    3.49   641.3    2.8      58.027
2013    6        3     6  13    3.49   641.2    2.8      57.994
2013    6        3     6  19    3.49   641.1    2.8      57.961
2013    6        3     6  26    3.49   641.1    2.8      57.928
2013    6        3     6  32    3.48   641.0    2.8      57.896
2013    6        3     6  39    3.48   640.9    2.8      57.863
2013    6        3     6  45    3.48   640.8    2.8      57.830
2013    6        3     6  52    3.48   640.7    2.8      57.798
2013    6        3     6  58    3.48   640.6    2.8      57.765
2013    6        3     7   5    3.47   640.6    2.8      57.733
2013    6        3     7  11    3.47   640.5    2.8      57.700
2013    6        3     7  18    3.47   640.4    2.8      57.668
2013    6        3     7  25    3.47   640.3    2.8      57.635
2013    6        3     7  31    3.46   640.2    2.8      57.602
2013    6        3     7  38    3.46   640.1    2.8      57.570
2013    6        3     7  44    3.46   640.0    2.8      57.537
2013    6        3     7  51    3.46   640.0    2.8      57.504
2013    6        3     7  57    3.46   639.9    2.8      57.470
2013    6        3     8   4    3.45   639.8    2.8      57.437
2013    6        3     8  10    3.45   639.7    2.8      57.403
2013    6        3     8  17    3.45   639.6    2.8      57.370
2013    6        3     8  23    3.45   639.5    2.8      57.336
2013    6        3     8  30    3.45   639.4    2.8      57.302
2013    6        3     8  36    3.44   639.4    2.8      57.268
2013    6        3     8  43    3.44   639.3    2.8      57.233
2013    6        3     8  50    3.44   639.2    2.8      57.199
2013    6        3     8  56    3.44   639.1    2.8      57.164
2013    6        3     9   3    3.43   639.0    2.8      57.129
2013    6        3     9   9    3.43   638.9    2.8      57.094
2013    6        3     9  16    3.43   638.8    2.8      57.059
2013    6        3     9  22    3.43   638.7    2.8      57.023
2013    6        3     9  29    3.43   638.7    2.8      56.987
2013    6        3     9  35    3.42   638.6    2.8      56.951
2013    6        3     9  42    3.42   638.5    2.8      56.915
2013    6        3     9  48    3.42   638.4    2.8      56.879
2013    6        3     9  55    3.42   638.3    2.8      56.843
2013    6        3    10   1    3.42   638.2    2.8      56.806
2013    6        3    10   8    3.41   638.1    2.8      56.769
2013    6        3    10  15    3.41   638.0    2.8      56.733
2013    6        3    10  21    3.41   637.9    2.8      56.696
2013    6        3    10  28    3.41   637.8    2.8      56.659
2013    6        3    10  34    3.40   637.7    2.8      56.622
2013    6        3    10  41    3.40   637.6    2.8      56.585
2013    6        3    10  47    3.40   637.5    2.8      56.548
2013    6        3    10  54    3.40   637.4    2.8      56.512
2013    6        3    11   0    3.40   637.3    2.8      56.475
2013    6        3    11   7    3.39   637.2    2.8      56.439
2013    6        3    11  13    3.39   637.1    2.8      56.403
2013    6        3    11  20    3.39   637.0    2.8      56.367
2013    6        3    11  26    3.39   636.9    2.8      56.332
2013    6        3    11  33    3.39   636.8    2.8      56.297
2013    6        3    11  39    3.38   636.7    2.8      56.263
2013    6        3    11  46    3.38   636.5    2.8      56.229
2013    6        3    11  53    3.38   636.4    2.8      56.196
2013    6        3    11  59    3.38   636.3    2.8      56.164
2013    6        3    12   6    3.38   636.2    2.8      56.131
2013    6        3    12  12    3.37   636.1    2.8      56.100
2013    6        3    12  19    3.37   636.0    2.8      56.069
2013    6        3    12  25    3.37   635.9    2.8      56.039
2013    6        3    12  32    3.37   635.8    2.8      56.009
2013    6        3    12  38    3.37   635.7    2.8      55.979
2013    6        3    12  45    3.36   635.6    2.8      55.950
2013    6        3    12  51    3.36   635.5    2.8      55.921
2013    6        3    12  58    3.36   635.3    2.8      55.893
2013    6        3    13   4    3.36   635.2    2.8      55.864
2013    6        3    13  11    3.36   635.1    2.8      55.836
2013    6        3    13  18    3.36   635.0    2.8      55.808
2013    6        3    13  24    3.35   634.9    2.8      55.780
2013    6        3    13  31    3.35   634.8    2.8      55.752
2013    6        3    13  37    3.35   634.7    2.8      55.723
2013    6        3    13  44    3.35   634.6    2.8      55.695
2013    6        3    13  50    3.35   634.5    2.8      55.666
2013    6        3    13  57    3.34   634.3    2.8      55.638
2013    6        3    14   3    3.34   634.2    2.8      55.609
2013    6        3    14  10    3.34   634.1    2.8      55.580
2013    6        3    14  16    3.34   634.0    2.8      55.551
2013    6        3    14  23    3.34   633.9    2.8      55.521
2013    6        3    14  29    3.34   633.8    2.8      55.491
2013    6        3    14  36    3.33   633.7    2.8      55.462
2013    6        3    14  43    3.33   633.6    2.8      55.432
2013    6        3    14  49    3.33   633.5    2.8      55.401
2013    6        3    14  56    3.33   633.3    2.8      55.371
2013    6        3    15   2    3.33   633.2    2.8      55.340
2013    6        3    15   9    3.33   633.1    2.8      55.309
2013    6        3    15  15    3.32   633.0    2.8      55.278
2013    6        3    15  22    3.32   632.9    2.8      55.246
2013    6        3    15  28    3.32   632.8    2.8      55.214
2013    6        3    15  35    3.32   632.7    2.8      55.182
2013    6        3    15  41    3.32   632.6    2.8      55.150
2013    6        3    15  48    3.31   632.5    2.8      55.117
2013    6        3    15  54    3.31   632.3    2.8      55.084
2013    6        3    16   1    3.31   632.2    2.8      55.050
2013    6        3    16   7    3.31   632.1    2.8      55.017
2013    6        3    16  14    3.31   632.0    2.8      54.983
2013    6        3    16  21    3.31   631.9    2.8      54.948
2013    6        3    16  27    3.30   631.8    2.8      54.914
2013    6        3    16  34    3.30   631.7    2.8      54.879
2013    6        3    16  40    3.30   631.5    2.8      54.843
2013    6        3    16  47    3.30   631.4    2.8      54.808
2013    6        3    16  53    3.30   631.3    2.8      54.771
2013    6        3    17   0    3.30   631.2    2.8      54.735
2013    6        3    17   6    3.29   631.1    2.8      54.698
2013    6        3    17  13    3.29   631.0    2.8      54.661
2013    6        3    17  19    3.29   630.8    2.8      54.624
2013    6        3    17  26    3.29   630.7    2.8      54.586
2013    6        3    17  32    3.29   630.6    2.8      54.548
2013    6        3    17  39    3.28   630.5    2.8      54.510
2013    6        3    17  46    3.28   630.4    2.8      54.472
2013    6        3    17  52    3.28   630.2    2.8      54.433
2013    6        3    17  59    3.28   630.1    2.8      54.395
2013    6        3    18   5    3.28   630.0    2.8      54.356
2013    6        3    18  12    3.28   629.9    2.8      54.317
2013    6        3    18  18    3.27   629.8    2.8      54.279
2013    6        3    18  25    3.27   629.6    2.8      54.240
2013    6        3    18  31    3.27   629.5    2.8      54.202
2013    6        3    18  38    3.27   629.4    2.8      54.164
2013    6        3    18  44    3.27   629.3    2.8      54.127
2013    6        3    18  51    3.27   629.1    2.8      54.089
2013    6        3    18  57    3.26   629.0    2.8      54.053
2013    6        3    19   4    3.26   628.9    2.8      54.016
2013    6        3    19  10    3.26   628.7    2.8      53.981
2013    6        3    19  17    3.26   628.6    2.8      53.945
2013    6        3    19  24    3.26   628.5    2.8      53.910
2013    6        3    19  30    3.25   628.4    2.8      53.876
2013    6        3    19  37    3.25   628.2    2.8      53.843
2013    6        3    19  43    3.25   628.1    2.8      53.810
2013    6        3    19  50    3.25   628.0    2.8      53.777
2013    6        3    19  56    3.25   627.9    2.8      53.745
2013    6        3    20   3    3.25   627.7    2.8      53.714
2013    6        3    20   9    3.24   627.6    2.8      53.683
2013    6        3    20  16    3.24   627.5    2.8      53.652
2013    6        3    20  22    3.24   627.4    2.8      53.622
2013    6        3    20  29    3.24   627.2    2.8      53.592
2013    6        3    20  35    3.24   627.1    2.8      53.562
2013    6        3    20  42    3.24   627.0    2.8      53.533
2013    6        3    20  49    3.23   626.9    2.8      53.504
2013    6        3    20  55    3.23   626.7    2.8      53.475
2013    6        3    21   2    3.23   626.6    2.8      53.447
2013    6        3    21   8    3.23   626.5    2.8      53.418
2013    6        3    21  15    3.23   626.3    2.8      53.390
2013    6        3    21  21    3.23   626.2    2.8      53.362
2013    6        3    21  28    3.23   626.1    2.8      53.334
2013    6        3    21  34    3.22   626.0    2.8      53.306
2013    6        3    21  41    3.22   625.8    2.8      53.279
2013    6        3    21  47    3.22   625.7    2.8      53.251
2013    6        3    21  54    3.22   625.6    2.8      53.224
2013    6        3    22   0    3.22   625.4    2.8      53.196
2013    6        3    22   7    3.22   625.3    2.8      53.169
2013    6        3    22  14    3.21   625.2    2.8      53.141
2013    6        3    22  20    3.21   625.0    2.8      53.113
2013    6        3    22  27    3.21   624.9    2.8      53.086
2013    6        3    22  33    3.21   624.8    2.8      53.058
2013    6        3    22  40    3.21   624.6    2.8      53.030
2013    6        3    22  46    3.21   624.5    2.8      53.002
2013    6        3    22  53    3.20   624.4    2.8      52.974
2013    6        3    22  59    3.20   624.2    2.8      52.945
2013    6        3    23   6    3.20   624.1    2.8      52.917
2013    6        3    23  12    3.20   624.0    2.8      52.888
2013    6        3    23  19    3.20   623.8    2.8      52.858
2013    6        3    23  26    3.20   623.7    2.8      52.829
2013    6        3    23  32    3.20   623.6    2.8      52.798
2013    6        3    23  39    3.19   623.4    2.8      52.767
2013    6        3    23  45    3.19   623.3    2.8      52.736
2013    6        3    23  52    3.19   623.2    2.8      52.704
2013    6        3    23  58    3.19   623.0    2.8      52.672
2013    6        4     0   5    3.19   622.9    2.8      52.640
2013    6        4     0  11    3.19   622.8    2.8      52.607
2013    6        4     0  18    3.18   622.6    2.8      52.574
2013    6        4     0  24    3.18   622.5    2.8      52.540
2013    6        4     0  31    3.18   622.4    2.8      52.506
2013    6        4     0  38    3.18   622.2    2.8      52.471
2013    6        4     0  44    3.18   622.1    2.8      52.435
2013    6        4     0  51    3.18   622.0    2.8      52.399
2013    6        4     0  57    3.17   621.8    2.8      52.363
2013    6        4     1   4    3.17   621.7    2.8      52.326
2013    6        4     1  10    3.17   621.5    2.8      52.288
2013    6        4     1  17    3.17   621.4    2.8      52.250
2013    6        4     1  23    3.17   621.3    2.8      52.211
2013    6        4     1  30    3.17   621.1    2.8      52.172
2013    6        4     1  36    3.17   621.0    2.8      52.133
2013    6        4     1  43    3.16   620.8    2.8      52.094
2013    6        4     1  50    3.16   620.7    2.8      52.054
2013    6        4     1  56    3.16   620.6    2.8      52.014
2013    6        4     2   3    3.16   620.4    2.8      51.974
2013    6        4     2   9    3.16   620.3    2.8      51.933
2013    6        4     2  16    3.16   620.1    2.8      51.893
2013    6        4     2  22    3.15   620.0    2.8      51.853
2013    6        4     2  29    3.15   619.8    2.8      51.813
2013    6        4     2  35    3.15   619.7    2.8      51.773
2013    6        4     2  42    3.15   619.5    2.8      51.733
2013    6        4     2  48    3.15   619.4    2.8      51.694
2013    6        4     2  55    3.15   619.2    2.8      51.655
2013    6        4     3   2    3.15   619.1    2.8      51.616
2013    6        4     3   8    3.14   618.9    2.8      51.577
2013    6        4     3  15    3.14   618.8    2.8      51.539
2013    6        4     3  21    3.14   618.6    2.8      51.501
2013    6        4     3  28    3.14   618.5    2.8      51.464
2013    6        4     3  34    3.14   618.3    2.8      51.427
2013    6        4     3  41    3.14   618.1    2.8      51.391
2013    6        4     3  47    3.14   618.0    2.8      51.355
2013    6        4     3  54    3.13   617.8    2.8      51.320
2013    6        4     4   0    3.13   617.7    2.8      51.285
2013    6        4     4   7    3.13   617.5    2.8      51.250
2013    6        4     4  14    3.13   617.4    2.8      51.217
2013    6        4     4  20    3.13   617.2    2.8      51.184
2013    6        4     4  27    3.13   617.0    2.8      51.151
2013    6        4     4  33    3.13   616.9    2.8      51.119
2013    6        4     4  40    3.12   616.7    2.8      51.087
2013    6        4     4  46    3.12   616.5    2.8      51.056
2013    6        4     4  53    3.12   616.4    2.8      51.025
2013    6        4     4  59    3.12   616.2    2.8      50.995
2013    6        4     5   6    3.12   616.1    2.8      50.964
2013    6        4     5  12    3.12   615.9    2.8      50.935
2013    6        4     5  19    3.12   615.7    2.8      50.905
2013    6        4     5  25    3.12   615.6    2.8      50.876
2013    6        4     5  32    3.12   615.4    2.8      50.846
2013    6        4     5  39    3.11   615.2    2.8      50.818
2013    6        4     5  45    3.11   615.1    2.8      50.789
2013    6        4     5  52    3.11   614.9    2.8      50.760
2013    6        4     5  58    3.11   614.7    2.8      50.731
2013    6        4     6   5    3.11   614.6    2.8      50.703
2013    6        4     6  11    3.11   614.4    2.8      50.675
2013    6        4     6  18    3.11   614.2    2.8      50.647
2013    6        4     6  24    3.11   614.1    2.8      50.619
2013    6        4     6  31    3.10   613.9    2.8      50.591
2013    6        4     6  37    3.10   613.7    2.8      50.563
2013    6        4     6  44    3.10   613.6    2.8      50.536
2013    6        4     6  50    3.10   613.4    2.8      50.508
2013    6        4     6  57    3.10   613.2    2.8      50.480
2013    6        4     7   4    3.10   613.1    2.8      50.453
2013    6        4     7  10    3.10   612.9    2.8      50.425
2013    6        4     7  17    3.10   612.7    2.8      50.398
2013    6        4     7  23    3.10   612.6    2.8      50.371
2013    6        4     7  30    3.09   612.4    2.8      50.344
2013    6        4     7  36    3.09   612.2    2.8      50.317
2013    6        4     7  43    3.09   612.1    2.8      50.290
2013    6        4     7  49    3.09   611.9    2.8      50.263
2013    6        4     7  56    3.09   611.7    2.8      50.235
2013    6        4     8   2    3.09   611.6    2.8      50.208
2013    6        4     8   9    3.09   611.4    2.8      50.180
2013    6        4     8  16    3.09   611.2    2.8      50.152
2013    6        4     8  22    3.08   611.1    2.8      50.124
2013    6        4     8  29    3.08   610.9    2.8      50.096
2013    6        4     8  35    3.08   610.7    2.8      50.067
2013    6        4     8  42    3.08   610.6    2.8      50.038
2013    6        4     8  48    3.08   610.4    2.8      50.009
2013    6        4     8  55    3.08   610.2    2.8      49.980
2013    6        4     9   1    3.08   610.1    2.8      49.950
2013    6        4     9   8    3.08   609.9    2.8      49.921
2013    6        4     9  14    3.08   609.7    2.8      49.891
2013    6        4     9  21    3.07   609.5    2.8      49.861
2013    6        4     9  28    3.07   609.4    2.8      49.831
2013    6        4     9  34    3.07   609.2    2.8      49.801
2013    6        4     9  41    3.07   609.0    2.8      49.770
2013    6        4     9  47    3.07   608.9    2.8      49.739
2013    6        4     9  54    3.07   608.7    2.8      49.709
2013    6        4    10   0    3.07   608.5    2.8      49.678
2013    6        4    10   7    3.07   608.3    2.8      49.647
2013    6        4    10  13    3.07   608.1    2.8      49.616
2013    6        4    10  20    3.06   607.9    2.8      49.584
2013    6        4    10  26    3.06   607.8    2.8      49.553
2013    6        4    10  33    3.06   607.6    2.8      49.522
2013    6        4    10  40    3.06   607.4    2.8      49.491
2013    6        4    10  46    3.06   607.2    2.8      49.460
2013    6        4    10  53    3.06   607.0    2.8      49.429
2013    6        4    10  59    3.06   606.8    2.8      49.398
2013    6        4    11   6    3.06   606.6    2.8      49.367
2013    6        4    11  12    3.06   606.5    2.8      49.336
2013    6        4    11  19    3.06   606.3    2.8      49.306
2013    6        4    11  25    3.06   606.1    2.8      49.275
2013    6        4    11  32    3.05   605.9    2.8      49.244
2013    6        4    11  38    3.05   605.7    2.8      49.214
2013    6        4    11  45    3.05   605.5    2.8      49.183
2013    6        4    11  52    3.05   605.3    2.8      49.153
2013    6        4    11  58    3.05   605.1    2.8      49.122
2013    6        4    12   5    3.05   604.9    2.8      49.091
2013    6        4    12  11    3.05   604.7    2.8      49.061
2013    6        4    12  18    3.05   604.6    2.8      49.029
2013    6        4    12  24    3.05   604.4    2.8      48.998
2013    6        4    12  31    3.05   604.2    2.8      48.967
2013    6        4    12  37    3.05   604.0    2.8      48.936
2013    6        4    12  44    3.05   603.8    2.8      48.904
2013    6        4    12  50    3.04   603.6    2.8      48.872
2013    6        4    12  57    3.04   603.4    2.8      48.840
2013    6        4    13   3    3.04   603.2    2.8      48.808
2013    6        4    13  10    3.04   603.0    2.8      48.776
2013    6        4    13  17    3.04   602.8    2.8      48.744
2013    6        4    13  23    3.04   602.6    2.8      48.712
2013    6        4    13  30    3.04   602.4    2.8      48.680
2013    6        4    13  36    3.04   602.3    2.8      48.647
2013    6        4    13  43    3.04   602.1    2.8      48.615
2013    6        4    13  49    3.04   601.9    2.8      48.584
2013    6        4    13  56    3.04   601.7    2.9      48.552
2013    6        4    14   2    3.04   601.5    2.9      48.521
2013    6        4    14   9    3.04   601.3    2.9      48.490
2013    6        4    14  15    3.04   601.1    2.9      48.459
2013    6        4    14  22    3.03   600.9    2.9      48.429
2013    6        4    14  28    3.03   600.7    2.9      48.400
2013    6        4    14  35    3.03   600.5    2.9      48.371
2013    6        4    14  42    3.03   600.3    2.9      48.342
2013    6        4    14  48    3.03   600.1    2.9      48.314
2013    6        4    14  55    3.03   599.9    2.9      48.286
2013    6        4    15   1    3.03   599.7    2.9      48.259
2013    6        4    15   8    3.03   599.5    2.9      48.233
2013    6        4    15  14    3.03   599.3    2.9      48.207
2013    6        4    15  21    3.03   599.1    2.9      48.182
2013    6        4    15  27    3.03   598.9    2.9      48.158
2013    6        4    15  34    3.03   598.7    2.9      48.133
2013    6        4    15  40    3.03   598.5    2.9      48.110
2013    6        4    15  47    3.03   598.3    2.9      48.087
2013    6        4    15  54    3.02   598.1    2.9      48.065
2013    6        4    16   0    3.02   597.9    2.9      48.043
2013    6        4    16   7    3.02   597.7    2.9      48.022
2013    6        4    16  13    3.02   597.6    2.9      48.001
2013    6        4    16  20    3.02   597.4    2.9      47.981
2013    6        4    16  26    3.02   597.2    2.9      47.960
2013    6        4    16  33    3.02   597.0    2.9      47.941
2013    6        4    16  39    3.02   596.8    2.9      47.921
2013    6        4    16  46    3.02   596.6    2.9      47.902
2013    6        4    16  52    3.02   596.4    2.9      47.882
2013    6        4    16  59    3.02   596.2    2.9      47.863
2013    6        4    17   6    3.02   596.0    2.9      47.843
2013    6        4    17  12    3.02   595.8    2.9      47.823
2013    6        4    17  19    3.02   595.6    2.9      47.803
2013    6        4    17  25    3.02   595.4    2.9      47.783
2013    6        4    17  32    3.02   595.2    2.9      47.763
2013    6        4    17  38    3.02   595.0    2.9      47.743
2013    6        4    17  45    3.02   594.8    2.9      47.722
2013    6        4    17  51    3.02   594.6    2.9      47.702
2013    6        4    17  58    3.02   594.4    2.9      47.681
2013    6        4    18   4    3.02   594.2    2.9      47.660
2013    6        4    18  11    3.01   594.0    2.9      47.638
2013    6        4    18  18    3.01   593.8    2.9      47.616
2013    6        4    18  24    3.01   593.6    2.9      47.594
2013    6        4    18  31    3.01   593.4    2.9      47.571
2013    6        4    18  37    3.01   593.3    2.9      47.547
2013    6        4    18  44    3.01   593.1    2.9      47.524
2013    6        4    18  50    3.01   592.9    2.9      47.499
2013    6        4    18  57    3.01   592.7    2.9      47.475
2013    6        4    19   3    3.01   592.5    2.9      47.450
2013    6        4    19  10    3.01   592.3    2.9      47.424
2013    6        4    19  16    3.01   592.1    2.9      47.398
2013    6        4    19  23    3.01   591.9    2.9      47.372
2013    6        4    19  29    3.01   591.7    2.9      47.345
2013    6        4    19  36    3.01   591.5    2.9      47.318
2013    6        4    19  43    3.01   591.3    2.9      47.290
2013    6        4    19  49    3.01   591.1    2.9      47.263
2013    6        4    19  56    3.01   590.9    2.9      47.234
2013    6        4    20   2    3.01   590.8    2.9      47.206
2013    6        4    20   9    3.01   590.6    2.9      47.177
2013    6        4    20  15    3.01   590.4    2.9      47.148
2013    6        4    20  22    3.01   590.2    2.9      47.119
2013    6        4    20  28    3.01   590.0    3.0      47.090
2013    6        4    20  35    3.01   589.8    3.0      47.060
2013    6        4    20  41    3.01   589.6    3.0      47.030
2013    6        4    20  48    3.01   589.4    3.0      47.000
2013    6        4    20  54    3.01   589.2    3.0      46.970
2013    6        4    21   1    3.00   589.0    3.0      46.940
2013    6        4    21   8    3.00   588.8    3.0      46.910
2013    6        4    21  14    3.00   588.6    3.0      46.880
2013    6        4    21  21    3.00   588.5    3.0      46.850
2013    6        4    21  27    3.00   588.3    3.0      46.820
2013    6        4    21  34    3.00   588.1    3.0      46.790
2013    6        4    21  40    3.00   587.9    3.0      46.760
2013    6        4    21  47    3.00   587.7    3.0      46.730
2013    6        4    21  53    3.00   587.5    3.0      46.701
2013    6        4    22   0    3.00   587.3    3.0      46.671
2013    6        4    22   6    3.00   587.1    3.0      46.642
2013    6        4    22  13    3.00   586.9    3.0      46.613
2013    6        4    22  20    3.00   586.7    3.0      46.585
2013    6        4    22  26    3.00   586.5    3.0      46.557
2013    6        4    22  33    3.00   586.3    3.0      46.529
2013    6        4    22  39    3.00   586.1    3.0      46.501
2013    6        4    22  46    3.00   585.9    3.0      46.474
2013    6        4    22  52    3.00   585.7    3.0      46.448
2013    6        4    22  59    3.00   585.5    3.0      46.422
2013    6        4    23   5    3.00   585.3    3.0      46.397
2013    6        4    23  12    3.00   585.1    3.0      46.372
2013    6        4    23  18    3.00   584.9    3.0      46.348
2013    6        4    23  25    3.00   584.7    3.0      46.324
2013    6        4    23  31    3.00   584.5    3.0      46.301
2013    6        4    23  38    3.00   584.3    3.0      46.278
2013    6        4    23  45    3.00   584.1    3.0      46.256
2013    6        4    23  51    3.00   583.9    3.0      46.234
2013    6        4    23  58    3.00   583.7    3.0      46.213
2013    6        5     0   4    3.00   583.5    3.0      46.192
2013    6        5     0  11    3.00   583.4    3.0      46.171
2013    6        5     0  17    3.00   583.2    3.0      46.151
2013    6        5     0  24    3.00   583.0    3.0      46.130
2013    6        5     0  30    3.00   582.8    3.0      46.110
2013    6        5     0  37    3.00   582.6    3.0      46.091
2013    6        5     0  43    3.00   582.4    3.0      46.071
2013    6        5     0  50    3.00   582.2    3.0      46.052
2013    6        5     0  57    3.00   582.0    3.0      46.034
2013    6        5     1   3    3.00   581.8    3.0      46.015
2013    6        5     1  10    3.00   581.6    3.0      45.996
2013    6        5     1  16    3.00   581.4    3.0      45.977
2013    6        5     1  23    3.00   581.2    3.0      45.958
2013    6        5     1  29    3.00   581.1    3.0      45.938
2013    6        5     1  36    3.00   580.9    3.0      45.919
2013    6        5     1  42    3.00   580.7    3.0      45.899
2013    6        5     1  49    3.00   580.5    3.0      45.879
2013    6        5     1  55    3.00   580.3    3.0      45.859
2013    6        5     2   2    3.00   580.1    3.0      45.839
2013    6        5     2   9    2.99   579.9    3.0      45.818
2013    6        5     2  15    2.99   579.7    3.0      45.798
2013    6        5     2  22    2.99   579.6    3.0      45.777
2013    6        5     2  28    2.99   579.4    3.0      45.756
2013    6        5     2  35    2.99   579.2    3.0      45.734
2013    6        5     2  41    2.99   579.0    3.1      45.713
2013    6        5     2  48    2.99   578.8    3.1      45.691
2013    6        5     2  54    2.99   578.6    3.1      45.669
2013    6        5     3   1    2.99   578.4    3.1      45.646
2013    6        5     3   7    2.99   578.2    3.1      45.624
2013    6        5     3  14    2.99   578.1    3.1      45.601
2013    6        5     3  20    2.99   577.9    3.1      45.578
2013    6        5     3  27    2.99   577.7    3.1      45.554
2013    6        5     3  34    2.99   577.5    3.1      45.531
2013    6        5     3  40    2.99   577.3    3.1      45.507
2013    6        5     3  47    2.99   577.1    3.1      45.482
2013    6        5     3  53    2.99   577.0    3.1      45.458
2013    6        5     4   0    2.99   576.8    3.1      45.433
2013    6        5     4   6    2.99   576.6    3.1      45.408
2013    6        5     4  13    2.99   576.4    3.1      45.383
2013    6        5     4  19    2.99   576.2    3.1      45.358
2013    6        5     4  26    2.99   576.0    3.1      45.332
2013    6        5     4  32    2.99   575.8    3.1      45.306
2013    6        5     4  39    2.99   575.7    3.1      45.280
2013    6        5     4  45    2.99   575.5    3.1      45.254
2013    6        5     4  52    2.99   575.3    3.1      45.228
2013    6        5     4  59    2.99   575.1    3.1      45.201
2013    6        5     5   5    2.99   574.9    3.1      45.175
2013    6        5     5  12    2.99   574.7    3.1      45.148
2013    6        5     5  18    2.99   574.5    3.1      45.121
2013    6        5     5  25    2.99   574.4    3.1      45.094
2013    6        5     5  31    2.99   574.2    3.1      45.067
2013    6        5     5  38    2.99   574.0    3.1      45.040
2013    6        5     5  44    2.99   573.8    3.1      45.013
2013    6        5     5  51    2.99   573.6    3.1      44.986
2013    6        5     5  57    2.99   573.4    3.1      44.959
2013    6        5     6   4    2.99   573.2    3.1      44.932
2013    6        5     6  10    2.99   573.0    3.1      44.906
2013    6        5     6  17    2.99   572.9    3.1      44.879
2013    6        5     6  24    2.99   572.7    3.1      44.853
2013    6        5     6  30    2.99   572.5    3.1      44.826
2013    6        5     6  37    2.99   572.3    3.1      44.800
2013    6        5     6  43    2.99   572.1    3.1      44.775
2013    6        5     6  50    2.99   571.9    3.1      44.749
2013    6        5     6  56    2.99   571.7    3.1      44.724
2013    6        5     7   3    2.99   571.5    3.1      44.699
2013    6        5     7   9    2.99   571.4    3.1      44.674
2013    6        5     7  16    2.99   571.2    3.1      44.650
2013    6        5     7  22    2.99   571.0    3.1      44.626
2013    6        5     7  29    2.99   570.8    3.1      44.602
2013    6        5     7  36    2.99   570.6    3.1      44.578
2013    6        5     7  42    2.99   570.4    3.1      44.555
2013    6        5     7  49    2.99   570.2    3.1      44.532
2013    6        5     7  55    2.99   570.0    3.1      44.510
2013    6        5     8   2    2.99   569.9    3.1      44.488
2013    6        5     8   8    2.98   569.7    3.1      44.465
2013    6        5     8  15    2.98   569.5    3.1      44.444
2013    6        5     8  21    2.98   569.3    3.1      44.422
2013    6        5     8  28    2.98   569.1    3.1      44.401
2013    6        5     8  34    2.98   568.9    3.1      44.380
2013    6        5     8  41    2.98   568.8    3.1      44.359
2013    6        5     8  48    2.98   568.6    3.1      44.338
2013    6        5     8  54    2.98   568.4    3.1      44.317
2013    6        5     9   1    2.98   568.2    3.1      44.297
2013    6        5     9   7    2.98   568.0    3.1      44.277
2013    6        5     9  14    2.98   567.8    3.1      44.256
2013    6        5     9  20    2.98   567.6    3.1      44.236
2013    6        5     9  27    2.98   567.5    3.1      44.216
2013    6        5     9  33    2.98   567.3    3.1      44.196
2013    6        5     9  40    2.98   567.1    3.2      44.176
2013    6        5     9  46    2.98   566.9    3.2      44.156
2013    6        5     9  53    2.98   566.7    3.2      44.137
2013    6        5     9  59    2.98   566.5    3.2      44.117
2013    6        5    10   6    2.98   566.3    3.2      44.097
2013    6        5    10  13    2.98   566.2    3.2      44.077
2013    6        5    10  19    2.98   566.0    3.2      44.057
2013    6        5    10  26    2.98   565.8    3.2      44.037
2013    6        5    10  32    2.98   565.6    3.2      44.017
2013    6        5    10  39    2.98   565.4    3.2      43.997
2013    6        5    10  45    2.98   565.2    3.2      43.977
2013    6        5    10  52    2.98   565.1    3.2      43.957
2013    6        5    10  58    2.98   564.9    3.2      43.936
2013    6        5    11   5    2.98   564.7    3.2      43.915
2013    6        5    11  11    2.98   564.5    3.2      43.895
2013    6        5    11  18    2.98   564.3    3.2      43.874
2013    6        5    11  24    2.98   564.1    3.2      43.852
2013    6        5    11  31    2.98   563.9    3.2      43.831
2013    6        5    11  38    2.98   563.8    3.2      43.809
2013    6        5    11  44    2.98   563.6    3.2      43.787
2013    6        5    11  51    2.98   563.4    3.2      43.765
2013    6        5    11  57    2.98   563.2    3.2      43.743
2013    6        5    12   4    2.98   563.0    3.2      43.720
2013    6        5    12  10    2.98   562.8    3.2      43.697
2013    6        5    12  17    2.98   562.6    3.2      43.674
2013    6        5    12  23    2.98   562.5    3.2      43.650
2013    6        5    12  30    2.98   562.3    3.2      43.626
2013    6        5    12  36    2.98   562.1    3.2      43.602
2013    6        5    12  43    2.98   561.9    3.2      43.578
2013    6        5    12  49    2.97   561.7    3.2      43.553
2013    6        5    12  56    2.97   561.5    3.2      43.528
2013    6        5    13   3    2.97   561.3    3.2      43.503
2013    6        5    13   9    2.97   561.1    3.2      43.478
2013    6        5    13  16    2.97   561.0    3.2      43.452
2013    6        5    13  22    2.97   560.8    3.2      43.426
2013    6        5    13  29    2.97   560.6    3.2      43.401
2013    6        5    13  35    2.97   560.4    3.2      43.375
2013    6        5    13  42    2.97   560.2    3.2      43.349
2013    6        5    13  48    2.97   560.0    3.2      43.323
2013    6        5    13  55    2.97   559.8    3.2      43.297
2013    6        5    14   1    2.97   559.6    3.2      43.271
2013    6        5    14   8    2.97   559.5    3.2      43.245
2013    6        5    14  15    2.97   559.3    3.2      43.219
2013    6        5    14  21    2.97   559.1    3.2      43.194
2013    6        5    14  28    2.97   558.9    3.2      43.168
2013    6        5    14  34    2.97   558.7    3.2      43.143
2013    6        5    14  41    2.97   558.5    3.2      43.118
2013    6        5    14  47    2.97   558.3    3.2      43.093
2013    6        5    14  54    2.97   558.1    3.2      43.068
2013    6        5    15   0    2.97   558.0    3.2      43.043
2013    6        5    15   7    2.97   557.8    3.2      43.019
2013    6        5    15  13    2.97   557.6    3.2      42.995
2013    6        5    15  20    2.97   557.4    3.2      42.971
2013    6        5    15  26    2.97   557.2    3.2      42.947
2013    6        5    15  33    2.97   557.0    3.2      42.924
2013    6        5    15  40    2.97   556.8    3.2      42.900
2013    6        5    15  46    2.97   556.7    3.2      42.877
2013    6        5    15  53    2.97   556.5    3.2      42.854
2013    6        5    15  59    2.97   556.3    3.2      42.831
2013    6        5    16   6    2.97   556.1    3.2      42.809
2013    6        5    16  12    2.97   555.9    3.3      42.786
2013    6        5    16  19    2.97   555.7    3.3      42.764
2013    6        5    16  25    2.97   555.6    3.3      42.741
2013    6        5    16  32    2.97   555.4    3.3      42.719
2013    6        5    16  38    2.97   555.2    3.3      42.697
2013    6        5    16  45    2.96   555.0    3.3      42.676
2013    6        5    16  51    2.96   554.8    3.3      42.654
2013    6        5    16  58    2.96   554.6    3.3      42.632
2013    6        5    17   5    2.96   554.5    3.3      42.611
2013    6        5    17  11    2.96   554.3    3.3      42.590
2013    6        5    17  18    2.96   554.1    3.3      42.569
2013    6        5    17  24    2.96   553.9    3.3      42.548
2013    6        5    17  31    2.96   553.7    3.3      42.527
2013    6        5    17  37    2.96   553.5    3.3      42.507
2013    6        5    17  44    2.96   553.4    3.3      42.486
2013    6        5    17  50    2.96   553.2    3.3      42.466
2013    6        5    17  57    2.96   553.0    3.3      42.446
2013    6        5    18   3    2.96   552.8    3.3      42.426
2013    6        5    18  10    2.96   552.6    3.3      42.407
2013    6        5    18  16    2.96   552.4    3.3      42.387
2013    6        5    18  23    2.96   552.3    3.3      42.368
2013    6        5    18  30    2.96   552.1    3.3      42.349
2013    6        5    18  36    2.96   551.9    3.3      42.330
2013    6        5    18  43    2.96   551.7    3.3      42.311
2013    6        5    18  49    2.96   551.5    3.3      42.292
2013    6        5    18  56    2.96   551.3    3.3      42.273
2013    6        5    19   2    2.96   551.2    3.3      42.254
2013    6        5    19   9    2.96   551.0    3.3      42.236
2013    6        5    19  15    2.96   550.8    3.3      42.217
2013    6        5    19  22    2.96   550.6    3.3      42.199
2013    6        5    19  28    2.96   550.4    3.3      42.180
2013    6        5    19  35    2.96   550.3    3.3      42.161
2013    6        5    19  41    2.96   550.1    3.3      42.143
2013    6        5    19  48    2.96   549.9    3.3      42.124
2013    6        5    19  55    2.96   549.7    3.3      42.105
2013    6        5    20   1    2.96   549.5    3.3      42.087
2013    6        5    20   8    2.96   549.4    3.3      42.068
2013    6        5    20  14    2.96   549.2    3.3      42.049
2013    6        5    20  21    2.96   549.0    3.3      42.030
2013    6        5    20  27    2.96   548.8    3.3      42.011
2013    6        5    20  34    2.96   548.7    3.3      41.992
2013    6        5    20  40    2.96   548.5    3.3      41.972
2013    6        5    20  47    2.96   548.3    3.3      41.953
2013    6        5    20  53    2.97   548.1    3.3      41.934
2013    6        5    21   0    2.97   547.9    3.3      41.914
2013    6        5    21   6    2.97   547.8    3.3      41.895
2013    6        5    21  13    2.97   547.6    3.3      41.875
2013    6        5    21  20    2.97   547.4    3.4      41.856
2013    6        5    21  26    2.97   547.2    3.4      41.836
2013    6        5    21  33    2.97   547.1    3.4      41.816
2013    6        5    21  39    2.97   546.9    3.4      41.796
2013    6        5    21  46    2.97   546.7    3.4      41.776
2013    6        5    21  52    2.97   546.5    3.4      41.756
2013    6        5    21  59    2.97   546.4    3.4      41.736
2013    6        5    22   5    2.97   546.2    3.4      41.715
2013    6        5    22  12    2.97   546.0    3.4      41.695
2013    6        5    22  18    2.97   545.8    3.4      41.674
2013    6        5    22  25    2.97   545.6    3.4      41.653
2013    6        5    22  32    2.97   545.5    3.4      41.632
2013    6        5    22  38    2.97   545.3    3.4      41.610
2013    6        5    22  45    2.97   545.1    3.4      41.589
2013    6        5    22  51    2.97   544.9    3.4      41.567
2013    6        5    22  58    2.97   544.7    3.4      41.545
2013    6        5    23   4    2.97   544.5    3.4      41.522
2013    6        5    23  11    2.97   544.4    3.4      41.500
2013    6        5    23  17    2.97   544.2    3.4      41.477
2013    6        5    23  24    2.97   544.0    3.4      41.455
2013    6        5    23  30    2.97   543.8    3.4      41.432
2013    6        5    23  37    2.96   543.6    3.4      41.410
2013    6        5    23  43    2.96   543.4    3.4      41.388
2013    6        5    23  50    2.96   543.2    3.4      41.366
2013    6        5    23  57    2.96   543.0    3.4      41.345
2013    6        6     0   3    2.96   542.8    3.4      41.323
2013    6        6     0  10    2.96   542.7    3.4      41.302
2013    6        6     0  16    2.96   542.5    3.4      41.280
2013    6        6     0  23    2.96   542.3    3.4      41.259
2013    6        6     0  29    2.96   542.1    3.4      41.237
2013    6        6     0  36    2.96   541.9    3.4      41.216
2013    6        6     0  42    2.96   541.7    3.4      41.194
2013    6        6     0  49    2.96   541.5    3.4      41.173
2013    6        6     0  55    2.96   541.3    3.4      41.151
2013    6        6     1   2    2.96   541.1    3.4      41.129
2013    6        6     1   8    2.96   540.9    3.4      41.107
2013    6        6     1  15    2.96   540.7    3.4      41.084
2013    6        6     1  22    2.96   540.5    3.4      41.061
2013    6        6     1  28    2.96   540.3    3.4      41.038
2013    6        6     1  35    2.96   540.1    3.4      41.013
2013    6        6     1  41    2.96   540.0    3.4      40.989
2013    6        6     1  48    2.97   539.8    3.4      40.964
2013    6        6     1  54    2.97   539.6    3.4      40.938
2013    6        6     2   1    2.97   539.4    3.4      40.911
2013    6        6     2   7    2.97   539.2    3.4      40.882
2013    6        6     2  14    2.97   539.0    3.4      40.852
2013    6        6     2  20    2.97   538.8    3.4      40.821
2013    6        6     2  27    2.97   538.6    3.4      40.788
2013    6        6     2  33    2.97   538.4    3.4      40.753
2013    6        6     2  40    2.97   538.2    3.4      40.716
2013    6        6     2  47    2.97   538.0    3.5      40.677
2013    6        6     2  53    2.97   537.8    3.5      40.636
2013    6        6     3   0    2.97   537.6    3.5      40.592
2013    6        6     3   6    2.97   537.4    3.5      40.547
2013    6        6     3  13    2.98   537.2    3.5      40.501
2013    6        6     3  19    2.98   537.0    3.5      40.453
2013    6        6     3  26    2.98   536.8    3.5      40.405
2013    6        6     3  32    2.98   536.6    3.5      40.356
2013    6        6     3  39    2.98   536.4    3.5      40.307
2013    6        6     3  45    2.98   536.2    3.5      40.258
2013    6        6     3  52    2.98   536.0    3.5      40.209
2013    6        6     3  58    2.98   535.7    3.5      40.160
2013    6        6     4   5    2.98   535.5    3.5      40.111
2013    6        6     4  12    2.98   535.3    3.5      40.062
2013    6        6     4  18    2.98   535.1    3.5      40.013
2013    6        6     4  25    2.98   534.8    3.4      39.965
2013    6        6     4  31    2.98   534.6    3.4      39.918
2013    6        6     4  38    2.98   534.4    3.4      39.871
2013    6        6     4  44    2.98   534.1    3.4      39.825
2013    6        6     4  51    2.98   533.9    3.4      39.780
2013    6        6     4  57    2.98   533.6    3.4      39.735
2013    6        6     5   4    2.97   533.4    3.4      39.692
2013    6        6     5  10    2.97   533.1    3.4      39.649
2013    6        6     5  17    2.97   532.8    3.4      39.606
2013    6        6     5  24    2.97   532.6    3.4      39.565
2013    6        6     5  30    2.97   532.3    3.4      39.524
2013    6        6     5  37    2.97   532.0    3.4      39.483
2013    6        6     5  43    2.97   531.7    3.4      39.444
2013    6        6     5  50    2.97   531.4    3.4      39.405
2013    6        6     5  56    2.97   531.1    3.4      39.367
2013    6        6     6   3    2.97   530.9    3.4      39.330
2013    6        6     6   9    2.97   530.6    3.4      39.295
2013    6        6     6  16    2.96   530.2    3.4      39.261
2013    6        6     6  22    2.96   529.9    3.4      39.228
2013    6        6     6  29    2.96   529.6    3.3      39.197
2013    6        6     6  35    2.96   529.3    3.3      39.168
2013    6        6     6  42    2.96   529.0    3.3      39.141
2013    6        6     6  49    2.96   528.7    3.3      39.117
2013    6        6     6  55    2.96   528.3    3.3      39.095
2013    6        6     7   2    2.96   528.0    3.3      39.078
2013    6        6     7   8    2.96   527.7    3.3      39.066
2013    6        6     7  15    2.96   527.3    3.3      39.059
2013    6        6     7  21    2.95   527.0    3.3      39.057
2013    6        6     7  28    2.95   526.6    3.3      39.058
2013    6        6     7  34    2.95   526.3    3.3      39.065
2013    6        6     7  41    2.95   525.9    3.3      39.076
2013    6        6     7  47    2.95   525.6    3.3      39.090
2013    6        6     7  54    2.95   525.3    3.3      39.109
2013    6        6     8   0    2.95   525.0    3.3      39.133
2013    6        6     8   7    2.95   524.6    3.3      39.158
2013    6        6     8  14    2.95   524.3    3.3      39.184
2013    6        6     8  20    2.95   524.1    3.3      39.209
2013    6        6     8  27    2.95   523.9    3.2      39.233
2013    6        6     8  33    2.95   523.6    3.2      39.251
2013    6        6     8  40    2.95   523.4    3.2      39.266
2013    6        6     8  46    2.95   523.2    3.2      39.275
2013    6        6     8  53    2.95   523.1    3.2      39.276
2013    6        6     8  59    2.95   522.9    3.2      39.268
2013    6        6     9   6    2.95   522.7    3.2      39.251
2013    6        6     9  12    2.95   522.6    3.2      39.226
2013    6        6     9  19    2.95   522.5    3.2      39.191
2013    6        6     9  25    2.95   522.3    3.2      39.146
2013    6        6     9  32    2.94   522.2    3.2      39.096
2013    6        6     9  39    2.94   522.0    3.1      39.042
2013    6        6     9  45    2.94   521.8    3.1      38.984
2013    6        6     9  52    2.94   521.6    3.1      38.922
2013    6        6     9  58    2.93   521.4    3.1      38.861
2013    6        6    10   5    2.93   521.1    3.1      38.798
2013    6        6    10  11    2.93   520.9    3.1      38.735
2013    6        6    10  18    2.92   520.6    3.1      38.672
2013    6        6    10  24    2.92   520.3    3.1      38.608
2013    6        6    10  31    2.92   520.0    3.0      38.544
2013    6        6    10  37    2.92   519.7    3.0      38.478
2013    6        6    10  44    2.91   519.4    3.0      38.411
2013    6        6    10  50    2.91   519.0    3.0      38.343
2013    6        6    10  57    2.91   518.7    3.0      38.275
2013    6        6    11   3    2.90   518.4    3.0      38.208
2013    6        6    11  10    2.90   518.0    2.9      38.143
2013    6        6    11  17    2.90   517.7    2.9      38.082
2013    6        6    11  23    2.89   517.3    2.9      38.024
2013    6        6    11  30    2.89   517.0    2.9      37.970
2013    6        6    11  36    2.89   516.6    2.9      37.919
2013    6        6    11  43    2.89   516.3    2.9      37.873
2013    6        6    11  49    2.88   515.9    2.9      37.829
2013    6        6    11  56    2.88   515.6    2.8      37.789
2013    6        6    12   2    2.88   515.2    2.8      37.752
2013    6        6    12   9    2.88   514.9    2.8      37.717
2013    6        6    12  15    2.87   514.6    2.8      37.684
2013    6        6    12  22    2.87   514.2    2.8      37.652
2013    6        6    12  29    2.87   513.9    2.8      37.623
2013    6        6    12  35    2.87   513.6    2.8      37.595
2013    6        6    12  42    2.87   513.2    2.8      37.570
2013    6        6    12  48    2.86   512.9    2.8      37.546
2013    6        6    12  55    2.86   512.6    2.8      37.524
2013    6        6    13   1    2.86   512.3    2.8      37.504
2013    6        6    13   8    2.86   512.0    2.7      37.486
2013    6        6    13  14    2.86   511.7    2.7      37.470
2013    6        6    13  21    2.86   511.4    2.7      37.457
2013    6        6    13  27    2.85   511.1    2.7      37.447
2013    6        6    13  34    2.85   510.8    2.7      37.440
2013    6        6    13  40    2.85   510.5    2.7      37.435
2013    6        6    13  47    2.85   510.3    2.7      37.434
2013    6        6    13  54    2.85   510.0    2.7      37.436
2013    6        6    14   0    2.85   509.7    2.7      37.440
2013    6        6    14   7    2.84   509.4    2.7      37.448
2013    6        6    14  13    2.84   509.1    2.7      37.458
2013    6        6    14  20    2.84   508.8    2.7      37.471
2013    6        6    14  26    2.84   508.5    2.7      37.487
2013    6        6    14  33    2.84   508.3    2.6      37.506
2013    6        6    14  39    2.84   508.0    2.6      37.528
2013    6        6    14  46    2.83   507.7    2.6      37.553
2013    6        6    14  52    2.83   507.4    2.6      37.581
2013    6        6    14  59    2.83   507.1    2.6      37.612
2013    6        6    15   5    2.83   506.8    2.6      37.646
2013    6        6    15  12    2.83   506.5    2.6      37.684
2013    6        6    15  19    2.82   506.2    2.6      37.725
2013    6        6    15  25    2.82   505.9    2.6      37.769
2013    6        6    15  32    2.82   505.6    2.6      37.818
2013    6        6    15  38    2.82   505.3    2.6      37.869
2013    6        6    15  45    2.82   505.1    2.6      37.925
2013    6        6    15  51    2.82   504.8    2.6      37.984
2013    6        6    15  58    2.81   504.5    2.6      38.047
2013    6        6    16   4    2.81   504.2    2.6      38.113
2013    6        6    16  11    2.81   503.9    2.6      38.184
2013    6        6    16  17    2.81   503.7    2.6      38.258
2013    6        6    16  24    2.81   503.4    2.6      38.336
2013    6        6    16  30    2.80   503.1    2.6      38.418
2013    6        6    16  37    2.80   502.9    2.6      38.503
2013    6        6    16  43    2.80   502.6    2.6      38.592
2013    6        6    16  50    2.80   502.4    2.6      38.684
2013    6        6    16  57    2.80   502.1    2.6      38.779
2013    6        6    17   3    2.79   501.9    2.6      38.877
2013    6        6    17  10    2.79   501.6    2.6      38.978
2013    6        6    17  16    2.79   501.4    2.6      39.082
2013    6        6    17  23    2.79   501.1    2.6      39.189
2013    6        6    17  29    2.79   500.9    2.6      39.298
2013    6        6    17  36    2.78   500.6    2.6      39.410
2013    6        6    17  42    2.78   500.4    2.6      39.525
2013    6        6    17  49    2.78   500.2    2.6      39.641
2013    6        6    17  55    2.78   499.9    2.6      39.760
2013    6        6    18   2    2.78   499.7    2.6      39.882
2013    6        6    18   9    2.77   499.4    2.6      40.005
2013    6        6    18  15    2.77   499.2    2.6      40.130
2013    6        6    18  22    2.77   499.0    2.6      40.257
2013    6        6    18  28    2.77   498.8    2.6      40.386
2013    6        6    18  35    2.77   498.5    2.6      40.516
2013    6        6    18  41    2.76   498.3    2.6      40.647
2013    6        6    18  48    2.76   498.1    2.6      40.780
2013    6        6    18  54    2.76   497.9    2.6      40.913
2013    6        6    19   1    2.76   497.7    2.7      41.048
2013    6        6    19   7    2.76   497.4    2.7      41.183
2013    6        6    19  14    2.75   497.2    2.7      41.320
2013    6        6    19  20    2.75   497.0    2.7      41.456
2013    6        6    19  27    2.75   496.8    2.7      41.593
2013    6        6    19  33    2.75   496.6    2.7      41.730
2013    6        6    19  40    2.75   496.3    2.7      41.867
2013    6        6    19  47    2.74   496.1    2.7      42.004
2013    6        6    19  53    2.74   495.9    2.7      42.142
2013    6        6    20   0    2.74   495.7    2.7      42.279
2013    6        6    20   6    2.74   495.5    2.8      42.416
2013    6        6    20  13    2.74   495.2    2.8      42.553
2013    6        6    20  19    2.74   495.0    2.8      42.690
2013    6        6    20  26    2.73   494.8    2.8      42.826
2013    6        6    20  32    2.73   494.6    2.8      42.962
2013    6        6    20  39    2.73   494.4    2.8      43.097
2013    6        6    20  45    2.73   494.2    2.8      43.231
2013    6        6    20  52    2.73   494.0    2.8      43.363
2013    6        6    20  59    2.73   493.7    2.9      43.494
2013    6        6    21   5    2.72   493.5    2.9      43.623
2013    6        6    21  12    2.72   493.3    2.9      43.751
2013    6        6    21  18    2.72   493.1    2.9      43.876
2013    6        6    21  25    2.72   492.9    2.9      43.999
2013    6        6    21  31    2.72   492.7    2.9      44.120
2013    6        6    21  38    2.72   492.5    2.9      44.238
2013    6        6    21  44    2.71   492.2    3.0      44.353
2013    6        6    21  51    2.71   492.0    3.0      44.466
2013    6        6    21  57    2.71   491.8    3.0      44.576
2013    6        6    22   4    2.71   491.5    3.0      44.683
2013    6        6    22  10    2.71   491.3    3.0      44.787
2013    6        6    22  17    2.70   491.0    3.0      44.888
2013    6        6    22  23    2.70   490.8    3.0      44.987
2013    6        6    22  30    2.70   490.5    3.0      45.083
2013    6        6    22  37    2.70   490.3    3.1      45.176
2013    6        6    22  43    2.70   490.0    3.1      45.267
2013    6        6    22  50    2.70   489.7    3.1      45.355
2013    6        6    22  56    2.69   489.5    3.1      45.440
2013    6        6    23   3    2.69   489.2    3.1      45.524
2013    6        6    23   9    2.69   489.0    3.1      45.605
2013    6        6    23  16    2.69   488.7    3.1      45.684
2013    6        6    23  22    2.69   488.4    3.1      45.761
2013    6        6    23  29    2.69   488.2    3.2      45.835
2013    6        6    23  35    2.68   487.9    3.2      45.908
2013    6        6    23  42    2.68   487.6    3.2      45.979
2013    6        6    23  48    2.68   487.3    3.2      46.048
2013    6        6    23  55    2.68   487.1    3.2      46.115
2013    6        7     0   2    2.68   486.8    3.2      46.180
2013    6        7     0   8    2.68   486.5    3.2      46.244
2013    6        7     0  15    2.67   486.2    3.2      46.306
2013    6        7     0  21    2.67   486.0    3.3      46.366
2013    6        7     0  28    2.67   485.7    3.3      46.426
2013    6        7     0  34    2.67   485.4    3.3      46.483
2013    6        7     0  41    2.67   485.1    3.3      46.540
2013    6        7     0  47    2.66   484.8    3.3      46.595
2013    6        7     0  54    2.66   484.5    3.3      46.648
2013    6        7     1   0    2.66   484.2    3.3      46.701
2013    6        7     1   7    2.66   484.0    3.3      46.752
2013    6        7     1  13    2.66   483.7    3.4      46.802
2013    6        7     1  20    2.66   483.4    3.4      46.851
2013    6        7     1  27    2.66   483.1    3.4      46.899
2013    6        7     1  33    2.65   482.8    3.4      46.946
2013    6        7     1  40    2.65   482.5    3.4      46.993
2013    6        7     1  46    2.65   482.2    3.4      47.038
2013    6        7     1  53    2.65   481.9    3.4      47.082
2013    6        7     1  59    2.65   481.6    3.4      47.126
2013    6        7     2   6    2.65   481.3    3.5      47.169
2013    6        7     2  12    2.64   481.0    3.5      47.211
2013    6        7     2  19    2.64   480.7    3.5      47.253
2013    6        7     2  25    2.64   480.4    3.5      47.294
2013    6        7     2  32    2.64   480.1    3.5      47.335
2013    6        7     2  38    2.64   479.8    3.5      47.375
2013    6        7     2  45    2.64   479.5    3.5      47.415
2013    6        7     2  52    2.64   479.2    3.6      47.454
2013    6        7     2  58    2.64   478.9    3.6      47.494
2013    6        7     3   5    2.63   478.6    3.6      47.533
2013    6        7     3  11    2.63   478.3    3.6      47.572
2013    6        7     3  18    2.63   478.0    3.6      47.611
2013    6        7     3  24    2.63   477.7    3.6      47.650
2013    6        7     3  31    2.63   477.4    3.6      47.688
2013    6        7     3  37    2.63   477.1    3.7      47.727
2013    6        7     3  44    2.63   476.8    3.7      47.767
2013    6        7     3  50    2.63   476.5    3.7      47.806
2013    6        7     3  57    2.63   476.2    3.7      47.845
2013    6        7     4   3    2.62   475.9    3.7      47.885
2013    6        7     4  10    2.62   475.6    3.7      47.925
2013    6        7     4  16    2.62   475.3    3.7      47.965
2013    6        7     4  23    2.62   475.0    3.8      48.006
2013    6        7     4  30    2.62   474.7    3.8      48.047
2013    6        7     4  36    2.62   474.4    3.8      48.088
2013    6        7     4  43    2.62   474.1    3.8      48.130
2013    6        7     4  49    2.62   473.8    3.8      48.172
2013    6        7     4  56    2.62   473.5    3.9      48.214
2013    6        7     5   2    2.62   473.2    3.9      48.256
2013    6        7     5   9    2.62   472.9    3.9      48.299
2013    6        7     5  15    2.62   472.6    3.9      48.342
2013    6        7     5  22    2.62   472.3    3.9      48.386
2013    6        7     5  28    2.62   472.1    3.9      48.429
2013    6        7     5  35    2.62   471.8    4.0      48.473
2013    6        7     5  41    2.62   471.5    4.0      48.517
2013    6        7     5  48    2.62   471.2    4.0      48.561
2013    6        7     5  55    2.61   470.9    4.0      48.606
2013    6        7     6   1    2.61   470.6    4.0      48.651
2013    6        7     6   8    2.61   470.3    4.1      48.696
2013    6        7     6  14    2.61   470.1    4.1      48.741
2013    6        7     6  21    2.61   469.8    4.1      48.786
2013    6        7     6  27    2.61   469.5    4.1      48.831
2013    6        7     6  34    2.61   469.2    4.2      48.876
2013    6        7     6  40    2.62   468.9    4.2      48.922
2013    6        7     6  47    2.62   468.7    4.2      48.968
2013    6        7     6  53    2.62   468.4    4.2      49.013
2013    6        7     7   0    2.62   468.1    4.2      49.059
2013    6        7     7   6    2.62   467.9    4.3      49.105
2013    6        7     7  13    2.62   467.6    4.3      49.150
2013    6        7     7  20    2.62   467.3    4.3      49.196
2013    6        7     7  26    2.62   467.1    4.3      49.241
2013    6        7     7  33    2.62   466.8    4.4      49.286
2013    6        7     7  39    2.62   466.6    4.4      49.331
2013    6        7     7  46    2.62   466.3    4.4      49.376
2013    6        7     7  52    2.62   466.1    4.4      49.420
2013    6        7     7  59    2.62   465.8    4.5      49.463
2013    6        7     8   5    2.62   465.6    4.5      49.506
2013    6        7     8  12    2.62   465.3    4.5      49.549
2013    6        7     8  18    2.63   465.1    4.6      49.590
2013    6        7     8  25    2.63   464.9    4.6      49.631
2013    6        7     8  31    2.63   464.6    4.6      49.670
2013    6        7     8  38    2.63   464.4    4.6      49.709
2013    6        7     8  45    2.63   464.1    4.7      49.747
2013    6        7     8  51    2.63   463.9    4.7      49.784
2013    6        7     8  58    2.63   463.7    4.7      49.821
2013    6        7     9   4    2.63   463.4    4.8      49.856
2013    6        7     9  11    2.64   463.2    4.8      49.891
2013    6        7     9  17    2.64   462.9    4.8      49.924
2013    6        7     9  24    2.64   462.7    4.8      49.957
2013    6        7     9  30    2.64   462.5    4.9      49.990
2013    6        7     9  37    2.64   462.2    4.9      50.022
2013    6        7     9  43    2.64   462.0    4.9      50.054
2013    6        7     9  50    2.64   461.7    5.0      50.086
2013    6        7     9  56    2.65   461.5    5.0      50.118
2013    6        7    10   3    2.65   461.3    5.0      50.150
2013    6        7    10   9    2.65   461.0    5.1      50.182
2013    6        7    10  16    2.65   460.8    5.1      50.215
2013    6        7    10  23    2.65   460.5    5.1      50.249
2013    6        7    10  29    2.66   460.3    5.1      50.284
2013    6        7    10  36    2.66   460.1    5.2      50.319
2013    6        7    10  42    2.66   459.8    5.2      50.357
2013    6        7    10  49    2.66   459.6    5.2      50.395
2013    6        7    10  55    2.66   459.3    5.3      50.435
2013    6        7    11   2    2.67   459.1    5.3      50.477
2013    6        7    11   8    2.67   458.9    5.4      50.521
2013    6        7    11  15    2.67   458.6    5.4      50.567
2013    6        7    11  21    2.67   458.4    5.4      50.616
2013    6        7    11  28    2.68   458.2    5.5      50.666
2013    6        7    11  34    2.68   458.0    5.5      50.719
2013    6        7    11  41    2.68   457.7    5.5      50.774
2013    6        7    11  48    2.68   457.5    5.6      50.832
2013    6        7    11  54    2.69   457.3    5.6      50.893
2013    6        7    12   1    2.69   457.1    5.7      50.957
2013    6        7    12   7    2.69   456.8    5.7      51.023
2013    6        7    12  14    2.70   456.6    5.8      51.090
2013    6        7    12  20    2.70   456.4    5.8      51.161
2013    6        7    12  27    2.70   456.2    5.8      51.236
2013    6        7    12  33    2.71   456.0    5.9      51.315
2013    6        7    12  40    2.71   455.7    5.9      51.397
2013    6        7    12  46    2.71   455.5    6.0      51.482
2013    6        7    12  53    2.72   455.3    6.0      51.569
2013    6        7    12  59    2.72   455.1    6.1      51.655
2013    6        7    13   6    2.73   454.9    6.1      51.741
2013    6        7    13  13    2.73   454.7    6.2      51.823
2013    6        7    13  19    2.74   454.5    6.2      51.903
2013    6        7    13  26    2.74   454.3    6.3      51.978
2013    6        7    13  32    2.74   454.1    6.3      52.051
2013    6        7    13  39    2.75   453.9    6.4      52.120
2013    6        7    13  45    2.75   453.7    6.4      52.186
2013    6        7    13  52    2.76   453.5    6.4      52.248
2013    6        7    13  58    2.76   453.3    6.5      52.308
2013    6        7    14   5    2.77   453.1    6.5      52.364
2013    6        7    14  11    2.77   452.9    6.6      52.417
2013    6        7    14  18    2.78   452.7    6.6      52.468
2013    6        7    14  24    2.79   452.5    6.6      52.518
2013    6        7    14  31    2.79   452.4    6.7      52.565
2013    6        7    14  38    2.80   452.2    6.7      52.611
2013    6        7    14  44    2.80   452.0    6.8      52.654
2013    6        7    14  51    2.81   451.8    6.8      52.698
2013    6        7    14  57    2.82   451.7    6.9      52.744
2013    6        7    15   4    2.82   451.5    6.9      52.792
2013    6        7    15  10    2.83   451.3    6.9      52.840
2013    6        7    15  17    2.84   451.2    7.0      52.887
2013    6        7    15  23    2.84   451.0    7.0      52.938
2013    6        7    15  30    2.85   450.9    7.0      52.992
2013    6        7    15  36    2.86   450.7    7.1      53.044
2013    6        7    15  43    2.87   450.6    7.1      53.092
2013    6        7    15  49    2.87   450.4    7.2      53.137
2013    6        7    15  56    2.88   450.3    7.2      53.180
2013    6        7    16   2    2.89   450.2    7.2      53.218
2013    6        7    16   9    2.90   450.1    7.2      53.249
2013    6        7    16  16    2.91   450.0    7.3      53.275
2013    6        7    16  22    2.92   449.9    7.3      53.295
2013    6        7    16  29    2.93   449.9    7.3      53.308
2013    6        7    16  35    2.94   449.8    7.3      53.316
2013    6        7    16  42    2.95   449.7    7.4      53.318
2013    6        7    16  48    2.96   449.7    7.4      53.314
2013    6        7    16  55    2.97   449.6    7.4      53.305
2013    6        7    17   1    2.98   449.6    7.4      53.291
2013    6        7    17   8    2.99   449.6    7.4      53.271
2013    6        7    17  14    3.01   449.6    7.4      53.247
2013    6        7    17  21    3.02   449.5    7.5      53.219
2013    6        7    17  27    3.03   449.5    7.5      53.186
2013    6        7    17  34    3.04   449.5    7.5      53.150
2013    6        7    17  41    3.05   449.5    7.5      53.110
2013    6        7    17  47    3.07   449.5    7.5      53.065
2013    6        7    17  54    3.08   449.5    7.5      53.015
2013    6        7    18   0    3.09   449.5    7.5      52.960
2013    6        7    18   7    3.10   449.6    7.5      52.899
2013    6        7    18  13    3.11   449.6    7.5      52.832
2013    6        7    18  20    3.13   449.6    7.5      52.758
2013    6        7    18  26    3.14   449.7    7.5      52.677
2013    6        7    18  33    3.15   449.7    7.5      52.590
2013    6        7    18  39    3.16   449.7    7.5      52.496
2013    6        7    18  46    3.17   449.8    7.5      52.395
2013    6        7    18  52    3.18   449.8    7.5      52.289
2013    6        7    18  59    3.19   449.9    7.5      52.176
2013    6        7    19   5    3.20   449.9    7.4      52.057
2013    6        7    19  12    3.21   450.0    7.4      51.933
2013    6        7    19  19    3.22   450.1    7.4      51.805
2013    6        7    19  25    3.23   450.2    7.4      51.671
2013    6        7    19  32    3.24   450.2    7.4      51.534
2013    6        7    19  38    3.25   450.3    7.4      51.393
2013    6        7    19  45    3.26   450.4    7.4      51.251
2013    6        7    19  51    3.27   450.5    7.4      51.106
2013    6        7    19  58    3.28   450.7    7.4      50.959
2013    6        7    20   4    3.29   450.8    7.3      50.810
2013    6        7    20  11    3.29   450.9    7.3      50.659
2013    6        7    20  17    3.30   451.1    7.3      50.505
2013    6        7    20  24    3.31   451.2    7.3      50.349
2013    6        7    20  30    3.32   451.4    7.3      50.188
2013    6        7    20  37    3.33   451.5    7.2      50.022
2013    6        7    20  44    3.33   451.7    7.2      49.850
2013    6        7    20  50    3.34   451.8    7.2      49.671
2013    6        7    20  57    3.35   452.0    7.2      49.487
2013    6        7    21   3    3.36   452.2    7.2      49.296
2013    6        7    21  10    3.36   452.3    7.1      49.094
2013    6        7    21  16    3.37   452.5    7.1      48.882
2013    6        7    21  23    3.37   452.7    7.1      48.663
2013    6        7    21  29    3.38   452.9    7.1      48.444
2013    6        7    21  36    3.39   453.1    7.0      48.223
2013    6        7    21  42    3.39   453.2    7.0      48.001
2013    6        7    21  49    3.40   453.4    7.0      47.779
2013    6        7    21  55    3.40   453.6    6.9      47.562
2013    6        7    22   2    3.41   453.8    6.9      47.349
2013    6        7    22   9    3.41   453.9    6.9      47.137
2013    6        7    22  15    3.42   454.1    6.8      46.923
2013    6        7    22  22    3.42   454.3    6.8      46.709
2013    6        7    22  28    3.43   454.4    6.8      46.494
2013    6        7    22  35    3.43   454.6    6.7      46.280
2013    6        7    22  41    3.44   454.8    6.7      46.067
2013    6        7    22  48    3.44   455.1    6.7      45.856
2013    6        7    22  54    3.45   455.3    6.6      45.645
2013    6        7    23   1    3.45   455.5    6.6      45.434
2013    6        7    23   7    3.45   455.8    6.6      45.223
2013    6        7    23  14    3.46   456.0    6.6      45.012
2013    6        7    23  20    3.46   456.3    6.5      44.798
2013    6        7    23  27    3.46   456.6    6.5      44.584
2013    6        7    23  33    3.46   456.9    6.5      44.369
2013    6        7    23  40    3.47   457.2    6.4      44.152
2013    6        7    23  47    3.47   457.5    6.4      43.932
2013    6        7    23  53    3.47   457.9    6.4      43.704
2013    6        8     0   0    3.47   458.2    6.3      43.469
2013    6        8     0   6    3.48   458.6    6.3      43.239
2013    6        8     0  13    3.48   458.9    6.3      43.011
2013    6        8     0  19    3.48   459.2    6.2      42.788
2013    6        8     0  26    3.48   459.6    6.2      42.570
2013    6        8     0  32    3.48   459.9    6.1      42.361
2013    6        8     0  39    3.48   460.2    6.1      42.161
2013    6        8     0  45    3.48   460.4    6.1      41.974
2013    6        8     0  52    3.48   460.7    6.0      41.794
2013    6        8     0  58    3.48   460.9    6.0      41.621
2013    6        8     1   5    3.48   461.1    5.9      41.453
2013    6        8     1  11    3.47   461.3    5.9      41.290
2013    6        8     1  18    3.47   461.5    5.9      41.133
2013    6        8     1  25    3.47   461.7    5.8      40.984
2013    6        8     1  31    3.47   461.9    5.8      40.842
2013    6        8     1  38    3.46   462.1    5.8      40.706
2013    6        8     1  44    3.46   462.3    5.7      40.576
2013    6        8     1  51    3.46   462.4    5.7      40.450
2013    6        8     1  57    3.46   462.6    5.7      40.329
2013    6        8     2   4    3.45   462.8    5.7      40.213
2013    6        8     2  10    3.45   462.9    5.6      40.102
2013    6        8     2  17    3.45   463.1    5.6      39.996
2013    6        8     2  23    3.45   463.3    5.6      39.894
2013    6        8     2  30    3.45   463.4    5.6      39.797
2013    6        8     2  36    3.44   463.6    5.6      39.703
2013    6        8     2  43    3.44   463.7    5.5      39.614
2013    6        8     2  50    3.44   463.8    5.5      39.529
2013    6        8     2  56    3.44   464.0    5.5      39.448
2013    6        8     3   3    3.44   464.1    5.5      39.371
2013    6        8     3   9    3.44   464.2    5.5      39.297
2013    6        8     3  16    3.44   464.3    5.5      39.226
2013    6        8     3  22    3.44   464.4    5.5      39.160
2013    6        8     3  29    3.43   464.5    5.4      39.097
2013    6        8     3  35    3.43   464.6    5.4      39.037
2013    6        8     3  42    3.43   464.7    5.4      38.981
2013    6        8     3  48    3.43   464.8    5.4      38.928
2013    6        8     3  55    3.43   464.8    5.4      38.878
2013    6        8     4   1    3.43   464.9    5.4      38.831
2013    6        8     4   8    3.43   464.9    5.4      38.788
2013    6        8     4  14    3.43   465.0    5.4      38.747
2013    6        8     4  21    3.43   465.0    5.4      38.709
2013    6        8     4  28    3.43   465.1    5.4      38.675
2013    6        8     4  34    3.43   465.1    5.4      38.643
2013    6        8     4  41    3.43   465.1    5.4      38.614
2013    6        8     4  47    3.43   465.2    5.4      38.588
2013    6        8     4  54    3.43   465.2    5.4      38.564
2013    6        8     5   0    3.43   465.3    5.3      38.543
2013    6        8     5   7    3.43   465.3    5.3      38.525
2013    6        8     5  13    3.43   465.3    5.3      38.509
2013    6        8     5  20    3.43   465.4    5.3      38.496
2013    6        8     5  26    3.43   465.4    5.3      38.485
2013    6        8     5  33    3.43   465.5    5.3      38.476
2013    6        8     5  39    3.43   465.5    5.3      38.469
2013    6        8     5  46    3.43   465.6    5.3      38.463
2013    6        8     5  53    3.43   465.6    5.3      38.460
2013    6        8     5  59    3.43   465.6    5.3      38.458
2013    6        8     6   6    3.43   465.7    5.3      38.456
2013    6        8     6  12    3.43   465.7    5.3      38.456
2013    6        8     6  19    3.43   465.7    5.3      38.456
2013    6        8     6  25    3.43   465.8    5.3      38.456
2013    6        8     6  32    3.43   465.8    5.3      38.456
2013    6        8     6  38    3.43   465.8    5.3      38.457
2013    6        8     6  45    3.43   465.9    5.3      38.457
2013    6        8     6  51    3.43   465.9    5.3      38.457
2013    6        8     6  58    3.43   465.9    5.3      38.457
2013    6        8     7   4    3.43   465.9    5.3      38.456
2013    6        8     7  11    3.43   465.9    5.3      38.455
2013    6        8     7  17    3.43   465.9    5.3      38.454
2013    6        8     7  24    3.43   465.9    5.3      38.454
2013    6        8     7  31    3.44   466.0    5.3      38.452
2013    6        8     7  37    3.44   466.0    5.3      38.452
2013    6        8     7  44    3.44   466.0    5.3      38.451
2013    6        8     7  50    3.44   465.9    5.3      38.452
2013    6        8     7  57    3.44   465.9    5.3      38.453
2013    6        8     8   3    3.44   465.9    5.3      38.455
2013    6        8     8  10    3.44   465.9    5.3      38.458
2013    6        8     8  16    3.44   465.9    5.3      38.462
2013    6        8     8  23    3.44   465.9    5.3      38.467
2013    6        8     8  29    3.44   465.9    5.3      38.474
2013    6        8     8  36    3.44   465.8    5.3      38.482
2013    6        8     8  42    3.44   465.8    5.3      38.492
2013    6        8     8  49    3.44   465.8    5.3      38.503
2013    6        8     8  55    3.44   465.8    5.3      38.515
2013    6        8     9   2    3.44   465.7    5.3      38.528
2013    6        8     9   9    3.44   465.7    5.3      38.543
2013    6        8     9  15    3.44   465.7    5.3      38.558
2013    6        8     9  22    3.44   465.7    5.4      38.574
2013    6        8     9  28    3.44   465.6    5.4      38.591
2013    6        8     9  35    3.44   465.6    5.4      38.608
2013    6        8     9  41    3.44   465.6    5.4      38.625
2013    6        8     9  48    3.44   465.6    5.4      38.643
2013    6        8     9  54    3.44   465.5    5.4      38.660
2013    6        8    10   1    3.44   465.5    5.4      38.677
2013    6        8    10   7    3.44   465.5    5.4      38.694
2013    6        8    10  14    3.44   465.5    5.4      38.710
2013    6        8    10  20    3.44   465.4    5.4      38.725
2013    6        8    10  27    3.44   465.4    5.4      38.739
2013    6        8    10  34    3.44   465.4    5.4      38.752
2013    6        8    10  40    3.45   465.4    5.4      38.764
2013    6        8    10  47    3.45   465.3    5.4      38.776
2013    6        8    10  53    3.45   465.3    5.4      38.786
2013    6        8    11   0    3.45   465.3    5.4      38.796
2013    6        8    11   6    3.45   465.3    5.4      38.804
2013    6        8    11  13    3.45   465.3    5.4      38.812
2013    6        8    11  19    3.45   465.3    5.4      38.820
2013    6        8    11  26    3.45   465.2    5.4      38.827
2013    6        8    11  32    3.45   465.2    5.4      38.833
2013    6        8    11  39    3.45   465.2    5.4      38.839
2013    6        8    11  45    3.45   465.2    5.4      38.845
2013    6        8    11  52    3.45   465.2    5.4      38.850
2013    6        8    11  58    3.45   465.2    5.4      38.855
2013    6        8    12   5    3.45   465.2    5.4      38.860
2013    6        8    12  12    3.45   465.2    5.4      38.864
2013    6        8    12  18    3.45   465.2    5.4      38.868
2013    6        8    12  25    3.45   465.1    5.4      38.872
2013    6        8    12  31    3.45   465.1    5.4      38.875
2013    6        8    12  38    3.45   465.1    5.4      38.879
2013    6        8    12  44    3.45   465.1    5.4      38.882
2013    6        8    12  51    3.45   465.1    5.4      38.885
2013    6        8    12  57    3.45   465.1    5.4      38.889
2013    6        8    13   4    3.45   465.1    5.4      38.891
2013    6        8    13  10    3.45   465.1    5.4      38.894
2013    6        8    13  17    3.45   465.1    5.4      38.897
2013    6        8    13  23    3.45   465.1    5.4      38.900
2013    6        8    13  30    3.45   465.1    5.4      38.903
2013    6        8    13  37    3.45   465.1    5.4      38.905
2013    6        8    13  43    3.45   465.1    5.4      38.908
2013    6        8    13  50    3.45   465.1    5.4      38.911
2013    6        8    13  56    3.45   465.1    5.4      38.914
2013    6        8    14   3    3.45   465.1    5.4      38.917
2013    6        8    14   9    3.45   465.1    5.4      38.920
2013    6        8    14  16    3.45   465.1    5.4      38.924
2013    6        8    14  22    3.45   465.1    5.4      38.927
2013    6        8    14  29    3.45   465.1    5.4      38.930
2013    6        8    14  35    3.45   465.1    5.4      38.933
2013    6        8    14  42    3.45   465.1    5.4      38.936
2013    6        8    14  48    3.45   465.1    5.4      38.939
2013    6        8    14  55    3.45   465.1    5.4      38.942
2013    6        8    15   1    3.45   465.1    5.4      38.944
2013    6        8    15   8    3.45   465.1    5.4      38.946
2013    6        8    15  15    3.45   465.2    5.4      38.948
2013    6        8    15  21    3.45   465.2    5.4      38.949
2013    6        8    15  28    3.45   465.2    5.4      38.950
2013    6        8    15  34    3.45   465.2    5.4      38.951
2013    6        8    15  41    3.44   465.2    5.4      38.952
2013    6        8    15  47    3.44   465.2    5.4      38.952
2013    6        8    15  54    3.44   465.2    5.4      38.951
2013    6        8    16   0    3.44   465.2    5.4      38.951
2013    6        8    16   7    3.44   465.2    5.4      38.950
2013    6        8    16  13    3.44   465.2    5.4      38.948
2013    6        8    16  20    3.44   465.2    5.4      38.946
2013    6        8    16  26    3.44   465.2    5.4      38.944
2013    6        8    16  33    3.44   465.2    5.4      38.941
2013    6        8    16  39    3.44   465.2    5.4      38.938
2013    6        8    16  46    3.44   465.2    5.4      38.934
2013    6        8    16  53    3.44   465.2    5.4      38.930
2013    6        8    16  59    3.44   465.1    5.4      38.926
2013    6        8    17   6    3.43   465.1    5.4      38.921
2013    6        8    17  12    3.43   465.1    5.4      38.915
2013    6        8    17  19    3.43   465.1    5.4      38.909
2013    6        8    17  25    3.43   465.1    5.4      38.903
2013    6        8    17  32    3.43   465.1    5.4      38.896
2013    6        8    17  38    3.43   465.1    5.4      38.889
2013    6        8    17  45    3.43   465.1    5.4      38.882
2013    6        8    17  51    3.43   465.1    5.4      38.874
2013    6        8    17  58    3.43   465.1    5.4      38.866
2013    6        8    18   4    3.43   465.1    5.4      38.858
2013    6        8    18  11    3.43   465.0    5.4      38.849
2013    6        8    18  18    3.42   465.0    5.4      38.840
2013    6        8    18  24    3.42   465.0    5.4      38.830
2013    6        8    18  31    3.42   465.0    5.4      38.821
2013    6        8    18  37    3.42   465.0    5.4      38.811
2013    6        8    18  44    3.42   465.0    5.4      38.800
2013    6        8    18  50    3.42   464.9    5.4      38.790
2013    6        8    18  57    3.42   464.9    5.4      38.779
2013    6        8    19   3    3.42   464.9    5.4      38.768
2013    6        8    19  10    3.42   464.9    5.4      38.757
2013    6        8    19  16    3.42   464.9    5.4      38.746
2013    6        8    19  23    3.42   464.9    5.4      38.735
2013    6        8    19  29    3.41   464.8    5.4      38.724
2013    6        8    19  36    3.41   464.8    5.4      38.713
2013    6        8    19  42    3.41   464.8    5.4      38.702
2013    6        8    19  49    3.41   464.8    5.4      38.691
2013    6        8    19  56    3.41   464.7    5.4      38.681
2013    6        8    20   2    3.41   464.7    5.4      38.670
2013    6        8    20   9    3.41   464.7    5.4      38.660
2013    6        8    20  15    3.41   464.7    5.4      38.650
2013    6        8    20  22    3.41   464.7    5.4      38.641
2013    6        8    20  28    3.41   464.6    5.4      38.632
2013    6        8    20  35    3.41   464.6    5.4      38.624
2013    6        8    20  41    3.41   464.6    5.4      38.616
2013    6        8    20  48    3.41   464.6    5.4      38.608
2013    6        8    20  54    3.41   464.6    5.4      38.601
2013    6        8    21   1    3.40   464.5    5.4      38.595
2013    6        8    21   7    3.40   464.5    5.4      38.589
2013    6        8    21  14    3.40   464.5    5.4      38.584
2013    6        8    21  20    3.40   464.5    5.4      38.580
2013    6        8    21  27    3.40   464.5    5.4      38.577
2013    6        8    21  34    3.40   464.5    5.4      38.574
2013    6        8    21  40    3.40   464.4    5.4      38.572
2013    6        8    21  47    3.40   464.4    5.4      38.571
2013    6        8    21  53    3.40   464.4    5.4      38.570
2013    6        8    22   0    3.40   464.4    5.4      38.569
2013    6        8    22   6    3.40   464.4    5.4      38.569
2013    6        8    22  13    3.40   464.4    5.4      38.569
2013    6        8    22  19    3.40   464.4    5.4      38.569
2013    6        8    22  26    3.39   464.3    5.4      38.569
2013    6        8    22  32    3.39   464.3    5.4      38.569
2013    6        8    22  39    3.39   464.3    5.4      38.569
2013    6        8    22  45    3.39   464.3    5.4      38.568
2013    6        8    22  52    3.39   464.3    5.4      38.567
2013    6        8    22  58    3.39   464.3    5.4      38.566
2013    6        8    23   5    3.39   464.3    5.4      38.564
2013    6        8    23  12    3.39   464.2    5.4      38.561
2013    6        8    23  18    3.39   464.2    5.4      38.558
2013    6        8    23  25    3.38   464.2    5.4      38.554
2013    6        8    23  31    3.38   464.2    5.4      38.550
2013    6        8    23  38    3.38   464.2    5.4      38.545
2013    6        8    23  44    3.38   464.2    5.4      38.539
2013    6        8    23  51    3.38   464.1    5.4      38.533
2013    6        8    23  57    3.38   464.1    5.4      38.526
2013    6        9     0   4    3.38   464.1    5.4      38.519
2013    6        9     0  10    3.38   464.1    5.4      38.512
2013    6        9     0  17    3.38   464.0    5.4      38.505
2013    6        9     0  23    3.37   464.0    5.4      38.497
2013    6        9     0  30    3.37   464.0    5.4      38.489
2013    6        9     0  37    3.37   464.0    5.4      38.479
2013    6        9     0  43    3.37   463.9    5.4      38.470
2013    6        9     0  50    3.37   463.9    5.4      38.460
2013    6        9     0  56    3.37   463.9    5.4      38.449
2013    6        9     1   3    3.37   463.9    5.4      38.438
2013    6        9     1   9    3.37   463.8    5.4      38.426
2013    6        9     1  16    3.36   463.8    5.3      38.414
2013    6        9     1  22    3.36   463.8    5.3      38.401
2013    6        9     1  29    3.36   463.7    5.3      38.388
2013    6        9     1  35    3.36   463.7    5.3      38.374
2013    6        9     1  42    3.36   463.7    5.3      38.361
2013    6        9     1  48    3.36   463.6    5.3      38.346
2013    6        9     1  55    3.36   463.6    5.3      38.332
2013    6        9     2   1    3.36   463.6    5.3      38.317
2013    6        9     2   8    3.35   463.5    5.3      38.302
2013    6        9     2  15    3.35   463.5    5.3      38.286
2013    6        9     2  21    3.35   463.4    5.3      38.270
2013    6        9     2  28    3.35   463.4    5.3      38.254
2013    6        9     2  34    3.35   463.4    5.3      38.238
2013    6        9     2  41    3.35   463.3    5.3      38.221
2013    6        9     2  47    3.35   463.3    5.3      38.204
2013    6        9     2  54    3.35   463.2    5.3      38.187
2013    6        9     3   0    3.34   463.2    5.3      38.170
2013    6        9     3   7    3.34   463.2    5.3      38.152
2013    6        9     3  13    3.34   463.1    5.3      38.134
2013    6        9     3  20    3.34   463.1    5.3      38.116
2013    6        9     3  26    3.34   463.0    5.3      38.098
2013    6        9     3  33    3.34   463.0    5.3      38.080
2013    6        9     3  40    3.34   463.0    5.3      38.061
2013    6        9     3  46    3.34   462.9    5.3      38.043
2013    6        9     3  53    3.33   462.9    5.3      38.024
2013    6        9     3  59    3.33   462.8    5.3      38.006
2013    6        9     4   6    3.33   462.8    5.3      37.987
2013    6        9     4  12    3.33   462.7    5.3      37.968
2013    6        9     4  19    3.33   462.7    5.3      37.949
2013    6        9     4  25    3.33   462.6    5.3      37.931
2013    6        9     4  32    3.33   462.6    5.3      37.912
2013    6        9     4  38    3.32   462.5    5.3      37.893
2013    6        9     4  45    3.32   462.5    5.3      37.875
2013    6        9     4  51    3.32   462.5    5.3      37.856
2013    6        9     4  58    3.32   462.4    5.3      37.838
2013    6        9     5   4    3.32   462.4    5.3      37.820
2013    6        9     5  11    3.32   462.3    5.3      37.802
2013    6        9     5  18    3.32   462.3    5.3      37.784
2013    6        9     5  24    3.31   462.2    5.3      37.766
2013    6        9     5  31    3.31   462.2    5.3      37.748
2013    6        9     5  37    3.31   462.1    5.3      37.731
2013    6        9     5  44    3.31   462.1    5.3      37.713
2013    6        9     5  50    3.31   462.0    5.3      37.696
2013    6        9     5  57    3.31   462.0    5.3      37.679
2013    6        9     6   3    3.31   461.9    5.3      37.662
2013    6        9     6  10    3.30   461.8    5.3      37.646
2013    6        9     6  16    3.30   461.8    5.3      37.629
2013    6        9     6  23    3.30   461.7    5.3      37.613
2013    6        9     6  29    3.30   461.7    5.3      37.596
2013    6        9     6  36    3.30   461.6    5.3      37.580
2013    6        9     6  42    3.30   461.6    5.3      37.564
2013    6        9     6  49    3.30   461.5    5.3      37.548
2013    6        9     6  56    3.29   461.4    5.3      37.532
2013    6        9     7   2    3.29   461.4    5.3      37.516
2013    6        9     7   9    3.29   461.3    5.3      37.500
2013    6        9     7  15    3.29   461.3    5.3      37.484
2013    6        9     7  22    3.29   461.2    5.3      37.468
2013    6        9     7  28    3.29   461.1    5.3      37.452
2013    6        9     7  35    3.29   461.1    5.3      37.436
2013    6        9     7  41    3.28   461.0    5.3      37.421
2013    6        9     7  48    3.28   460.9    5.3      37.405
2013    6        9     7  54    3.28   460.9    5.3      37.389
2013    6        9     8   1    3.28   460.8    5.3      37.373
2013    6        9     8   7    3.28   460.7    5.3      37.357
2013    6        9     8  14    3.28   460.6    5.3      37.341
2013    6        9     8  20    3.28   460.6    5.3      37.325
2013    6        9     8  27    3.27   460.5    5.3      37.308
2013    6        9     8  34    3.27   460.4    5.3      37.292
2013    6        9     8  40    3.27   460.3    5.3      37.276
2013    6        9     8  47    3.27   460.3    5.3      37.259
2013    6        9     8  53    3.27   460.2    5.3      37.242
2013    6        9     9   0    3.27   460.1    5.3      37.226
2013    6        9     9   6    3.27   460.0    5.3      37.209
2013    6        9     9  13    3.26   459.9    5.3      37.192
2013    6        9     9  19    3.26   459.9    5.3      37.175
2013    6        9     9  26    3.26   459.8    5.3      37.158
2013    6        9     9  32    3.26   459.7    5.2      37.140
2013    6        9     9  39    3.26   459.6    5.2      37.123
2013    6        9     9  45    3.26   459.5    5.2      37.105
2013    6        9     9  52    3.26   459.5    5.2      37.088
2013    6        9     9  59    3.26   459.4    5.2      37.070
2013    6        9    10   5    3.25   459.3    5.2      37.052
2013    6        9    10  12    3.25   459.2    5.2      37.034
2013    6        9    10  18    3.25   459.1    5.2      37.015
2013    6        9    10  25    3.25   459.0    5.2      36.997
2013    6        9    10  31    3.25   458.9    5.2      36.978
2013    6        9    10  38    3.25   458.9    5.2      36.959
2013    6        9    10  44    3.25   458.8    5.2      36.940
2013    6        9    10  51    3.24   458.7    5.2      36.920
2013    6        9    10  57    3.24   458.6    5.2      36.900
2013    6        9    11   4    3.24   458.5    5.2      36.880
2013    6        9    11  10    3.24   458.4    5.2      36.860
2013    6        9    11  17    3.24   458.3    5.2      36.839
2013    6        9    11  23    3.24   458.3    5.2      36.818
2013    6        9    11  30    3.24   458.2    5.2      36.797
2013    6        9    11  37    3.24   458.1    5.2      36.776
2013    6        9    11  43    3.23   458.0    5.2      36.754
2013    6        9    11  50    3.23   457.9    5.2      36.732
2013    6        9    11  56    3.23   457.8    5.2      36.710
2013    6        9    12   3    3.23   457.7    5.2      36.687
2013    6        9    12   9    3.23   457.6    5.2      36.664
2013    6        9    12  16    3.23   457.5    5.2      36.641
2013    6        9    12  22    3.23   457.4    5.2      36.618
2013    6        9    12  29    3.22   457.3    5.2      36.595
2013    6        9    12  35    3.22   457.3    5.2      36.571
2013    6        9    12  42    3.22   457.2    5.2      36.547
2013    6        9    12  48    3.22   457.1    5.2      36.523
2013    6        9    12  55    3.22   457.0    5.2      36.499
2013    6        9    13   1    3.22   456.9    5.2      36.475
2013    6        9    13   8    3.22   456.8    5.2      36.450
2013    6        9    13  15    3.21   456.7    5.2      36.425
2013    6        9    13  21    3.21   456.6    5.2      36.400
2013    6        9    13  28    3.21   456.5    5.2      36.375
2013    6        9    13  34    3.21   456.4    5.2      36.350
2013    6        9    13  41    3.21   456.3    5.2      36.325
2013    6        9    13  47    3.21   456.2    5.2      36.299
2013    6        9    13  54    3.21   456.1    5.2      36.274
2013    6        9    14   0    3.20   456.0    5.2      36.248
2013    6        9    14   7    3.20   455.9    5.2      36.222
2013    6        9    14  13    3.20   455.8    5.2      36.196
2013    6        9    14  20    3.20   455.7    5.2      36.170
2013    6        9    14  26    3.20   455.6    5.2      36.145
2013    6        9    14  33    3.20   455.5    5.2      36.119
2013    6        9    14  39    3.20   455.4    5.2      36.093
2013    6        9    14  46    3.20   455.3    5.2      36.067
2013    6        9    14  53    3.19   455.2    5.2      36.041
2013    6        9    14  59    3.19   455.1    5.2      36.015
2013    6        9    15   6    3.19   455.0    5.2      35.990
2013    6        9    15  12    3.19   454.9    5.2      35.964
2013    6        9    15  19    3.19   454.8    5.2      35.939
2013    6        9    15  25    3.19   454.7    5.2      35.914
2013    6        9    15  32    3.19   454.6    5.2      35.889
2013    6        9    15  38    3.18   454.4    5.2      35.864
2013    6        9    15  45    3.18   454.3    5.2      35.840
2013    6        9    15  51    3.18   454.2    5.2      35.816
2013    6        9    15  58    3.18   454.1    5.2      35.792
2013    6        9    16   4    3.18   454.0    5.2      35.768
2013    6        9    16  11    3.18   453.9    5.2      35.745
2013    6        9    16  18    3.18   453.8    5.2      35.722
2013    6        9    16  24    3.18   453.7    5.2      35.699
2013    6        9    16  31    3.18   453.5    5.2      35.677
2013    6        9    16  37    3.17   453.4    5.2      35.655
2013    6        9    16  44    3.17   453.3    5.2      35.634
2013    6        9    16  50    3.17   453.2    5.2      35.613
2013    6        9    16  57    3.17   453.1    5.2      35.592
2013    6        9    17   3    3.17   452.9    5.2      35.571
2013    6        9    17  10    3.17   452.8    5.2      35.551
2013    6        9    17  16    3.17   452.7    5.2      35.531
2013    6        9    17  23    3.17   452.6    5.2      35.511
2013    6        9    17  29    3.17   452.5    5.2      35.492
2013    6        9    17  36    3.17   452.3    5.2      35.472
2013    6        9    17  42    3.16   452.2    5.2      35.453
2013    6        9    17  49    3.16   452.1    5.2      35.434
2013    6        9    17  56    3.16   452.0    5.2      35.415
2013    6        9    18   2    3.16   451.8    5.2      35.396
2013    6        9    18   9    3.16   451.7    5.2      35.377
2013    6        9    18  15    3.16   451.6    5.2      35.358
2013    6        9    18  22    3.16   451.5    5.2      35.339
2013    6        9    18  28    3.16   451.3    5.2      35.320
2013    6        9    18  35    3.16   451.2    5.2      35.301
2013    6        9    18  41    3.16   451.1    5.2      35.281
2013    6        9    18  48    3.16   450.9    5.2      35.261
2013    6        9    18  54    3.15   450.8    5.2      35.241
2013    6        9    19   1    3.15   450.7    5.2      35.221
2013    6        9    19   7    3.15   450.5    5.2      35.201
2013    6        9    19  14    3.15   450.4    5.2      35.180
2013    6        9    19  21    3.15   450.3    5.2      35.160
2013    6        9    19  27    3.15   450.1    5.2      35.139
2013    6        9    19  34    3.15   450.0    5.2      35.117
2013    6        9    19  40    3.15   449.9    5.2      35.096
2013    6        9    19  47    3.15   449.7    5.2      35.074
2013    6        9    19  53    3.15   449.6    5.2      35.052
2013    6        9    20   0    3.15   449.5    5.2      35.030
2013    6        9    20   6    3.15   449.3    5.2      35.007
2013    6        9    20  13    3.15   449.2    5.2      34.984
2013    6        9    20  19    3.15   449.1    5.2      34.962
2013    6        9    20  26    3.14   448.9    5.2      34.938
2013    6        9    20  32    3.14   448.8    5.2      34.915
2013    6        9    20  39    3.14   448.7    5.2      34.891
2013    6        9    20  45    3.14   448.5    5.2      34.867
2013    6        9    20  52    3.14   448.4    5.2      34.843
2013    6        9    20  58    3.14   448.2    5.2      34.819
2013    6        9    21   5    3.14   448.1    5.2      34.794
2013    6        9    21  12    3.14   448.0    5.2      34.770
2013    6        9    21  18    3.14   447.8    5.2      34.745
2013    6        9    21  25    3.14   447.7    5.2      34.720
2013    6        9    21  31    3.14   447.5    5.2      34.694
2013    6        9    21  38    3.14   447.4    5.2      34.669
2013    6        9    21  44    3.14   447.3    5.2      34.643
2013    6        9    21  51    3.14   447.1    5.2      34.618
2013    6        9    21  57    3.14   447.0    5.2      34.592
2013    6        9    22   4    3.13   446.8    5.2      34.566
2013    6        9    22  10    3.13   446.7    5.2      34.541
2013    6        9    22  17    3.13   446.5    5.2      34.515
2013    6        9    22  23    3.13   446.4    5.2      34.489
2013    6        9    22  30    3.13   446.3    5.2      34.464
2013    6        9    22  37    3.13   446.1    5.2      34.438
2013    6        9    22  43    3.13   446.0    5.2      34.413
2013    6        9    22  50    3.13   445.8    5.2      34.388
2013    6        9    22  56    3.13   445.7    5.2      34.363
2013    6        9    23   3    3.13   445.5    5.2      34.339
2013    6        9    23   9    3.13   445.4    5.2      34.314
2013    6        9    23  16    3.13   445.2    5.2      34.290
2013    6        9    23  22    3.13   445.1    5.2      34.267
2013    6        9    23  29    3.13   444.9    5.2      34.243
2013    6        9    23  35    3.13   444.8    5.2      34.221
2013    6        9    23  42    3.13   444.6    5.2      34.198
2013    6        9    23  48    3.13   444.5    5.2      34.176
2013    6        9    23  55    3.13   444.3    5.3      34.154
2013    6       10     0   1    3.13   444.2    5.3      34.133
2013    6       10     0   8    3.13   444.1    5.3      34.113
2013    6       10     0  15    3.13   443.9    5.3      34.092
2013    6       10     0  21    3.13   443.8    5.3      34.072
2013    6       10     0  28    3.12   443.6    5.3      34.053
2013    6       10     0  34    3.12   443.5    5.3      34.034
2013    6       10     0  41    3.12   443.3    5.3      34.015
2013    6       10     0  47    3.12   443.2    5.3      33.997
2013    6       10     0  54    3.12   443.0    5.3      33.979
2013    6       10     1   0    3.12   442.9    5.3      33.961
2013    6       10     1   7    3.12   442.7    5.3      33.944
2013    6       10     1  13    3.12   442.6    5.3      33.927
2013    6       10     1  20    3.12   442.4    5.3      33.910
2013    6       10     1  26    3.12   442.3    5.3      33.893
2013    6       10     1  33    3.12   442.1    5.3      33.877
2013    6       10     1  40    3.12   442.0    5.3      33.861
2013    6       10     1  46    3.12   441.8    5.3      33.844
2013    6       10     1  53    3.12   441.7    5.3      33.828
2013    6       10     1  59    3.12   441.5    5.3      33.812
2013    6       10     2   6    3.12   441.4    5.3      33.796
2013    6       10     2  12    3.12   441.2    5.3      33.780
2013    6       10     2  19    3.12   441.1    5.3      33.764
2013    6       10     2  25    3.12   440.9    5.3      33.749
2013    6       10     2  32    3.12   440.8    5.3      33.733
2013    6       10     2  38    3.12   440.6    5.3      33.717
2013    6       10     2  45    3.12   440.5    5.3      33.702
2013    6       10     2  51    3.12   440.3    5.3      33.686
2013    6       10     2  58    3.13   440.2    5.3      33.671
2013    6       10     3   4    3.13   440.0    5.3      33.655
2013    6       10     3  11    3.13   439.9    5.3      33.640
2013    6       10     3  17    3.13   439.7    5.3      33.624
2013    6       10     3  24    3.13   439.6    5.3      33.609
2013    6       10     3  31    3.13   439.4    5.3      33.593
2013    6       10     3  37    3.13   439.3    5.4      33.578
2013    6       10     3  44    3.13   439.1    5.4      33.562
2013    6       10     3  50    3.13   438.9    5.4      33.547
2013    6       10     3  57    3.13   438.8    5.4      33.531
2013    6       10     4   3    3.13   438.6    5.4      33.515
2013    6       10     4  10    3.13   438.5    5.4      33.500
2013    6       10     4  16    3.13   438.3    5.4      33.484
2013    6       10     4  23    3.13   438.2    5.4      33.468
2013    6       10     4  29    3.13   438.0    5.4      33.452
2013    6       10     4  36    3.13   437.8    5.4      33.436
2013    6       10     4  42    3.13   437.7    5.4      33.419
2013    6       10     4  49    3.13   437.5    5.4      33.403
2013    6       10     4  56    3.13   437.4    5.4      33.387
2013    6       10     5   2    3.13   437.2    5.4      33.370
2013    6       10     5   9    3.13   437.1    5.4      33.353
2013    6       10     5  15    3.13   436.9    5.4      33.336
2013    6       10     5  22    3.13   436.7    5.4      33.319
2013    6       10     5  28    3.13   436.6    5.4      33.302
2013    6       10     5  35    3.13   436.4    5.4      33.285
2013    6       10     5  41    3.13   436.3    5.4      33.268
2013    6       10     5  48    3.13   436.1    5.4      33.251
2013    6       10     5  54    3.13   435.9    5.4      33.234
2013    6       10     6   1    3.14   435.8    5.4      33.217
2013    6       10     6   7    3.14   435.6    5.4      33.200
2013    6       10     6  14    3.14   435.5    5.4      33.182
2013    6       10     6  20    3.14   435.3    5.4      33.165
2013    6       10     6  27    3.14   435.2    5.4      33.149
2013    6       10     6  34    3.14   435.0    5.4      33.132
2013    6       10     6  40    3.14   434.8    5.4      33.115
2013    6       10     6  47    3.14   434.7    5.4      33.099
2013    6       10     6  53    3.14   434.5    5.4      33.083
2013    6       10     7   0    3.14   434.4    5.4      33.067
2013    6       10     7   6    3.14   434.2    5.4      33.051
2013    6       10     7  13    3.14   434.1    5.4      33.036
2013    6       10     7  19    3.14   433.9    5.4      33.021
2013    6       10     7  26    3.14   433.8    5.5      33.006
2013    6       10     7  32    3.15   433.6    5.5      32.992
2013    6       10     7  39    3.15   433.4    5.5      32.978
2013    6       10     7  45    3.15   433.3    5.5      32.964
2013    6       10     7  52    3.15   433.1    5.5      32.951
2013    6       10     7  58    3.15   433.0    5.5      32.938
2013    6       10     8   5    3.15   432.8    5.5      32.925
2013    6       10     8  12    3.15   432.7    5.5      32.913
2013    6       10     8  18    3.15   432.5    5.5      32.902
2013    6       10     8  25    3.15   432.4    5.5      32.890
2013    6       10     8  31    3.15   432.3    5.5      32.879
2013    6       10     8  38    3.16   432.1    5.5      32.869
2013    6       10     8  44    3.16   432.0    5.5      32.859
2013    6       10     8  51    3.16   431.8    5.5      32.849
2013    6       10     8  57    3.16   431.7    5.5      32.840
2013    6       10     9   4    3.16   431.5    5.5      32.831
2013    6       10     9  10    3.16   431.4    5.5      32.822
2013    6       10     9  17    3.16   431.2    5.5      32.814
2013    6       10     9  23    3.17   431.1    5.6      32.807
2013    6       10     9  30    3.17   431.0    5.6      32.799
2013    6       10     9  37    3.17   430.8    5.6      32.793
2013    6       10     9  43    3.17   430.7    5.6      32.786
2013    6       10     9  50    3.17   430.5    5.6      32.781
2013    6       10     9  56    3.17   430.4    5.6      32.775
2013    6       10    10   3    3.17   430.3    5.6      32.770
2013    6       10    10   9    3.18   430.1    5.6      32.766
2013    6       10    10  16    3.18   430.0    5.6      32.763
2013    6       10    10  22    3.18   429.8    5.6      32.760
2013    6       10    10  29    3.18   429.7    5.6      32.758
2013    6       10    10  35    3.18   429.6    5.6      32.756
2013    6       10    10  42    3.18   429.4    5.6      32.756
2013    6       10    10  48    3.19   429.3    5.6      32.755
2013    6       10    10  55    3.19   429.2    5.7      32.756
2013    6       10    11   1    3.19   429.1    5.7      32.756
2013    6       10    11   8    3.19   428.9    5.7      32.757
2013    6       10    11  14    3.19   428.8    5.7      32.759
2013    6       10    11  21    3.20   428.7    5.7      32.760
2013    6       10    11  28    3.20   428.6    5.7      32.762
2013    6       10    11  34    3.20   428.4    5.7      32.764
2013    6       10    11  41    3.20   428.3    5.7      32.766
2013    6       10    11  47    3.20   428.2    5.7      32.768
2013    6       10    11  54    3.20   428.1    5.7      32.770
2013    6       10    12   0    3.21   427.9    5.7      32.771
2013    6       10    12   7    3.21   427.8    5.7      32.772
2013    6       10    12  13    3.21   427.7    5.7      32.774
2013    6       10    12  20    3.21   427.6    5.7      32.774
2013    6       10    12  26    3.21   427.4    5.7      32.775
2013    6       10    12  33    3.22   427.3    5.7      32.775
2013    6       10    12  39    3.22   427.2    5.7      32.776
2013    6       10    12  46    3.22   427.1    5.7      32.776
2013    6       10    12  53    3.22   427.0    5.8      32.775
2013    6       10    12  59    3.22   426.9    5.8      32.775
2013    6       10    13   6    3.22   426.7    5.8      32.774
2013    6       10    13  12    3.23   426.6    5.8      32.773
2013    6       10    13  19    3.23   426.5    5.8      32.772
2013    6       10    13  25    3.23   426.4    5.8      32.770
2013    6       10    13  32    3.23   426.3    5.8      32.769
2013    6       10    13  38    3.23   426.2    5.8      32.767
2013    6       10    13  45    3.24   426.0    5.8      32.766
2013    6       10    13  51    3.24   425.9    5.8      32.764
2013    6       10    13  58    3.24   425.8    5.8      32.762
2013    6       10    14   4    3.24   425.7    5.8      32.761
2013    6       10    14  11    3.24   425.6    5.8      32.759
2013    6       10    14  17    3.25   425.5    5.8      32.757
2013    6       10    14  24    3.25   425.4    5.8      32.756
2013    6       10    14  31    3.25   425.3    5.8      32.754
2013    6       10    14  37    3.25   425.2    5.8      32.753
2013    6       10    14  44    3.25   425.1    5.8      32.751
2013    6       10    14  50    3.26   425.0    5.8      32.750
2013    6       10    14  57    3.26   424.9    5.9      32.749
2013    6       10    15   3    3.26   424.8    5.9      32.748
2013    6       10    15  10    3.26   424.7    5.9      32.748
2013    6       10    15  16    3.26   424.6    5.9      32.747
2013    6       10    15  23    3.27   424.5    5.9      32.747
2013    6       10    15  29    3.27   424.4    5.9      32.747
2013    6       10    15  36    3.27   424.3    5.9      32.748
2013    6       10    15  42    3.27   424.2    5.9      32.748
2013    6       10    15  49    3.27   424.1    5.9      32.749
2013    6       10    15  55    3.28   424.0    5.9      32.750
2013    6       10    16   2    3.28   423.9    5.9      32.751
2013    6       10    16   9    3.28   423.8    5.9      32.753
2013    6       10    16  15    3.28   423.7    5.9      32.755
2013    6       10    16  22    3.29   423.6    5.9      32.758
2013    6       10    16  28    3.29   423.5    5.9      32.760
2013    6       10    16  35    3.29   423.4    5.9      32.763
2013    6       10    16  41    3.29   423.3    6.0      32.766
2013    6       10    16  48    3.29   423.2    6.0      32.770
2013    6       10    16  54    3.30   423.2    6.0      32.774
2013    6       10    17   1    3.30   423.1    6.0      32.779
2013    6       10    17   7    3.30   423.0    6.0      32.783
2013    6       10    17  14    3.30   422.9    6.0      32.789
2013    6       10    17  20    3.31   422.8    6.0      32.794
2013    6       10    17  27    3.31   422.7    6.0      32.801
2013    6       10    17  33    3.31   422.7    6.0      32.807
2013    6       10    17  40    3.31   422.6    6.0      32.815
2013    6       10    17  47    3.32   422.5    6.0      32.823
2013    6       10    17  53    3.32   422.4    6.0      32.831
2013    6       10    18   0    3.32   422.4    6.0      32.841
2013    6       10    18   6    3.32   422.3    6.1      32.850
2013    6       10    18  13    3.33   422.2    6.1      32.861
2013    6       10    18  19    3.33   422.1    6.1      32.871
2013    6       10    18  26    3.33   422.1    6.1      32.883
2013    6       10    18  32    3.33   422.0    6.1      32.895
2013    6       10    18  39    3.34   421.9    6.1      32.907
2013    6       10    18  45    3.34   421.9    6.1      32.920
2013    6       10    18  52    3.34   421.8    6.1      32.933
2013    6       10    18  58    3.34   421.7    6.1      32.947
2013    6       10    19   5    3.35   421.7    6.1      32.961
2013    6       10    19  11    3.35   421.6    6.1      32.975
2013    6       10    19  18    3.35   421.5    6.1      32.990
2013    6       10    19  25    3.36   421.5    6.1      33.005
2013    6       10    19  31    3.36   421.4    6.2      33.021
2013    6       10    19  38    3.36   421.4    6.2      33.037
2013    6       10    19  44    3.36   421.3    6.2      33.054
2013    6       10    19  51    3.37   421.3    6.2      33.070
2013    6       10    19  57    3.37   421.2    6.2      33.088
2013    6       10    20   4    3.37   421.2    6.2      33.105
2013    6       10    20  10    3.37   421.1    6.2      33.122
2013    6       10    20  17    3.38   421.1    6.2      33.140
2013    6       10    20  23    3.38   421.0    6.2      33.158
2013    6       10    20  30    3.38   421.0    6.2      33.175
2013    6       10    20  36    3.38   420.9    6.2      33.192
2013    6       10    20  43    3.39   420.9    6.2      33.209
2013    6       10    20  50    3.39   420.8    6.2      33.226
2013    6       10    20  56    3.39   420.8    6.3      33.243
2013    6       10    21   3    3.39   420.7    6.3      33.259
2013    6       10    21   9    3.40   420.7    6.3      33.275
2013    6       10    21  16    3.40   420.7    6.3      33.290
2013    6       10    21  22    3.40   420.6    6.3      33.305
2013    6       10    21  29    3.40   420.6    6.3      33.320
2013    6       10    21  35    3.41   420.5    6.3      33.334
2013    6       10    21  42    3.41   420.5    6.3      33.348
2013    6       10    21  48    3.41   420.5    6.3      33.362
2013    6       10    21  55    3.41   420.4    6.3      33.375
2013    6       10    22   1    3.42   420.4    6.3      33.388
2013    6       10    22   8    3.42   420.3    6.3      33.401
2013    6       10    22  14    3.42   420.3    6.3      33.414
2013    6       10    22  21    3.42   420.3    6.3      33.426
2013    6       10    22  28    3.42   420.2    6.3      33.438
2013    6       10    22  34    3.43   420.2    6.3      33.450
2013    6       10    22  41    3.43   420.2    6.3      33.462
2013    6       10    22  47    3.43   420.1    6.3      33.473
2013    6       10    22  54    3.43   420.1    6.3      33.484
2013    6       10    23   0    3.43   420.1    6.4      33.496
2013    6       10    23   7    3.44   420.0    6.4      33.507
2013    6       10    23  13    3.44   420.0    6.4      33.518
2013    6       10    23  20    3.44   420.0    6.4      33.528
2013    6       10    23  26    3.44   420.0    6.4      33.539
2013    6       10    23  33    3.45   419.9    6.4      33.549
2013    6       10    23  39    3.45   419.9    6.4      33.560
2013    6       10    23  46    3.45   419.9    6.4      33.570
2013    6       10    23  52    3.45   419.8    6.4      33.581
2013    6       10    23  59    3.45   419.8    6.4      33.591
2013    6       11     0   6    3.46   419.8    6.4      33.601
2013    6       11     0  12    3.46   419.8    6.4      33.611
2013    6       11     0  19    3.46   419.7    6.4      33.621
2013    6       11     0  25    3.46   419.7    6.4      33.631
2013    6       11     0  32    3.46   419.7    6.4      33.641
2013    6       11     0  38    3.47   419.6    6.4      33.651
2013    6       11     0  45    3.47   419.6    6.4      33.662
2013    6       11     0  51    3.47   419.6    6.4      33.672
2013    6       11     0  58    3.47   419.6    6.4      33.682
2013    6       11     1   4    3.47   419.5    6.4      33.693
2013    6       11     1  11    3.48   419.5    6.4      33.703
2013    6       11     1  17    3.48   419.5    6.4      33.714
2013    6       11     1  24    3.48   419.5    6.4      33.725
2013    6       11     1  30    3.48   419.4    6.5      33.736
2013    6       11     1  37    3.48   419.4    6.5      33.747
2013    6       11     1  44    3.49   419.4    6.5      33.759
2013    6       11     1  50    3.49   419.4    6.5      33.771
2013    6       11     1  57    3.49   419.4    6.5      33.783
2013    6       11     2   3    3.49   419.3    6.5      33.796
2013    6       11     2  10    3.49   419.3    6.5      33.809
2013    6       11     2  16    3.50   419.3    6.5      33.822
2013    6       11     2  23    3.50   419.3    6.5      33.836
2013    6       11     2  29    3.50   419.3    6.5      33.851
2013    6       11     2  36    3.50   419.2    6.5      33.866
2013    6       11     2  42    3.51   419.2    6.5      33.882
2013    6       11     2  49    3.51   419.2    6.5      33.898
2013    6       11     2  55    3.51   419.2    6.5      33.916
2013    6       11     3   2    3.51   419.2    6.5      33.934
2013    6       11     3   8    3.51   419.2    6.5      33.953
2013    6       11     3  15    3.52   419.2    6.5      33.973
2013    6       11     3  22    3.52   419.2    6.5      33.993
2013    6       11     3  28    3.52   419.2    6.5      34.015
2013    6       11     3  35    3.52   419.2    6.6      34.037
2013    6       11     3  41    3.52   419.2    6.6      34.059
2013    6       11     3  48    3.53   419.2    6.6      34.082
2013    6       11     3  54    3.53   419.2    6.6      34.105
2013    6       11     4   1    3.53   419.2    6.6      34.128
2013    6       11     4   7    3.53   419.2    6.6      34.152
2013    6       11     4  14    3.54   419.2    6.6      34.176
2013    6       11     4  20    3.54   419.2    6.6      34.200
2013    6       11     4  27    3.54   419.2    6.6      34.224
2013    6       11     4  33    3.54   419.2    6.6      34.249
2013    6       11     4  40    3.54   419.2    6.6      34.273
2013    6       11     4  46    3.55   419.2    6.6      34.296
2013    6       11     4  53    3.55   419.2    6.6      34.320
2013    6       11     5   0    3.55   419.2    6.6      34.343
2013    6       11     5   6    3.55   419.2    6.6      34.366
2013    6       11     5  13    3.55   419.3    6.6      34.389
2013    6       11     5  19    3.56   419.3    6.6      34.412
2013    6       11     5  26    3.56   419.3    6.6      34.434
2013    6       11     5  32    3.56   419.3    6.6      34.456
2013    6       11     5  39    3.56   419.3    6.7      34.477
2013    6       11     5  45    3.56   419.3    6.7      34.498
2013    6       11     5  52    3.56   419.3    6.7      34.518
2013    6       11     5  58    3.57   419.3    6.7      34.538
2013    6       11     6   5    3.57   419.4    6.7      34.559
2013    6       11     6  11    3.57   419.4    6.7      34.579
2013    6       11     6  18    3.57   419.4    6.7      34.598
2013    6       11     6  25    3.57   419.4    6.7      34.618
2013    6       11     6  31    3.57   419.4    6.7      34.638
2013    6       11     6  38    3.58   419.4    6.7      34.657
2013    6       11     6  44    3.58   419.5    6.7      34.676
2013    6       11     6  51    3.58   419.5    6.7      34.694
2013    6       11     6  57    3.58   419.5    6.7      34.712
2013    6       11     7   4    3.58   419.5    6.7      34.730
2013    6       11     7  10    3.58   419.5    6.7      34.747
2013    6       11     7  17    3.59   419.5    6.7      34.764
2013    6       11     7  23    3.59   419.6    6.7      34.780
2013    6       11     7  30    3.59   419.6    6.7      34.796
2013    6       11     7  36    3.59   419.6    6.7      34.811
2013    6       11     7  43    3.59   419.6    6.7      34.826
2013    6       11     7  49    3.59   419.6    6.7      34.840
2013    6       11     7  56    3.59   419.6    6.7      34.853
2013    6       11     8   2    3.60   419.7    6.7      34.867
2013    6       11     8   9    3.60   419.7    6.7      34.879
2013    6       11     8  16    3.60   419.7    6.7      34.892
2013    6       11     8  22    3.60   419.7    6.7      34.904
2013    6       11     8  29    3.60   419.7    6.7      34.916
2013    6       11     8  35    3.60   419.7    6.7      34.927
2013    6       11     8  42    3.60   419.7    6.7      34.939
2013    6       11     8  48    3.60   419.8    6.7      34.950
2013    6       11     8  55    3.61   419.8    6.7      34.961
2013    6       11     9   1    3.61   419.8    6.7      34.972
2013    6       11     9   8    3.61   419.8    6.7      34.983
2013    6       11     9  14    3.61   419.8    6.7      34.995
2013    6       11     9  21    3.61   419.8    6.7      35.006
2013    6       11     9  27    3.61   419.8    6.7      35.017
2013    6       11     9  34    3.61   419.9    6.7      35.029
2013    6       11     9  40    3.62   419.9    6.7      35.040
2013    6       11     9  47    3.62   419.9    6.7      35.052
2013    6       11     9  54    3.62   419.9    6.7      35.064
2013    6       11    10   0    3.62   419.9    6.7      35.077
2013    6       11    10   7    3.62   419.9    6.7      35.090
2013    6       11    10  13    3.62   420.0    6.8      35.103
2013    6       11    10  20    3.62   420.0    6.8      35.117
2013    6       11    10  26    3.62   420.0    6.8      35.131
2013    6       11    10  33    3.63   420.0    6.8      35.145
2013    6       11    10  39    3.63   420.0    6.8      35.160
2013    6       11    10  46    3.63   420.0    6.8      35.176
2013    6       11    10  52    3.63   420.1    6.8      35.192
2013    6       11    10  59    3.63   420.1    6.8      35.208
2013    6       11    11   5    3.63   420.1    6.8      35.226
2013    6       11    11  12    3.63   420.1    6.8      35.243
2013    6       11    11  18    3.64   420.2    6.8      35.262
2013    6       11    11  25    3.64   420.2    6.8      35.282
2013    6       11    11  32    3.64   420.2    6.8      35.302
2013    6       11    11  38    3.64   420.2    6.8      35.322
2013    6       11    11  45    3.64   420.3    6.8      35.343
2013    6       11    11  51    3.64   420.3    6.8      35.365
2013    6       11    11  58    3.65   420.3    6.8      35.387
2013    6       11    12   4    3.65   420.4    6.8      35.409
2013    6       11    12  11    3.65   420.4    6.8      35.431
2013    6       11    12  17    3.65   420.4    6.8      35.453
2013    6       11    12  24    3.65   420.5    6.8      35.475
2013    6       11    12  30    3.65   420.5    6.8      35.498
2013    6       11    12  37    3.65   420.6    6.8      35.520
2013    6       11    12  43    3.66   420.6    6.8      35.542
2013    6       11    12  50    3.66   420.6    6.8      35.564
2013    6       11    12  57    3.66   420.7    6.8      35.585
2013    6       11    13   3    3.66   420.7    6.8      35.607
2013    6       11    13  10    3.66   420.7    6.8      35.629
2013    6       11    13  16    3.66   420.8    6.8      35.650
2013    6       11    13  23    3.67   420.8    6.8      35.672
2013    6       11    13  29    3.67   420.9    6.8      35.694
2013    6       11    13  36    3.67   420.9    6.8      35.716
2013    6       11    13  42    3.67   420.9    6.8      35.737
2013    6       11    13  49    3.67   421.0    6.8      35.759
2013    6       11    13  55    3.67   421.0    6.8      35.781
2013    6       11    14   2    3.67   421.1    6.8      35.802
2013    6       11    14   8    3.68   421.1    6.8      35.823
2013    6       11    14  15    3.68   421.1    6.8      35.844
2013    6       11    14  21    3.68   421.2    6.8      35.865
2013    6       11    14  28    3.68   421.2    6.9      35.886
2013    6       11    14  35    3.68   421.3    6.9      35.906
2013    6       11    14  41    3.68   421.3    6.9      35.926
2013    6       11    14  48    3.68   421.4    6.9      35.946
2013    6       11    14  54    3.69   421.4    6.9      35.965
2013    6       11    15   1    3.69   421.4    6.9      35.984
2013    6       11    15   7    3.69   421.5    6.9      36.003
2013    6       11    15  14    3.69   421.5    6.9      36.021
2013    6       11    15  20    3.69   421.6    6.9      36.039
2013    6       11    15  27    3.69   421.6    6.9      36.057
2013    6       11    15  33    3.69   421.6    6.9      36.075
2013    6       11    15  40    3.70   421.7    6.9      36.093
2013    6       11    15  46    3.70   421.7    6.9      36.110
2013    6       11    15  53    3.70   421.8    6.9      36.127
2013    6       11    15  59    3.70   421.8    6.9      36.144
2013    6       11    16   6    3.70   421.9    6.9      36.161
2013    6       11    16  13    3.70   421.9    6.9      36.177
2013    6       11    16  19    3.70   421.9    6.9      36.194
2013    6       11    16  26    3.70   422.0    6.9      36.211
2013    6       11    16  32    3.71   422.0    6.9      36.228
2013    6       11    16  39    3.71   422.1    6.9      36.246
2013    6       11    16  45    3.71   422.1    6.9      36.263
2013    6       11    16  52    3.71   422.2    6.9      36.281
2013    6       11    16  58    3.71   422.2    6.9      36.299
2013    6       11    17   5    3.71   422.2    6.9      36.318
2013    6       11    17  11    3.71   422.3    6.9      36.337
2013    6       11    17  18    3.71   422.3    6.9      36.355
2013    6       11    17  24    3.72   422.4    6.9      36.374
2013    6       11    17  31    3.72   422.4    6.9      36.394
2013    6       11    17  37    3.72   422.5    6.9      36.413
2013    6       11    17  44    3.72   422.5    6.9      36.433
2013    6       11    17  51    3.72   422.6    6.9      36.453
2013    6       11    17  57    3.72   422.6    6.9      36.473
2013    6       11    18   4    3.72   422.7    6.9      36.493
2013    6       11    18  10    3.73   422.7    6.9      36.513
2013    6       11    18  17    3.73   422.8    6.9      36.533
2013    6       11    18  23    3.73   422.8    6.9      36.554
2013    6       11    18  30    3.73   422.9    6.9      36.575
2013    6       11    18  36    3.73   422.9    6.9      36.596
2013    6       11    18  43    3.73   423.0    6.9      36.617
2013    6       11    18  49    3.73   423.0    6.9      36.638
2013    6       11    18  56    3.74   423.1    6.9      36.659
2013    6       11    19   2    3.74   423.1    6.9      36.681
2013    6       11    19   9    3.74   423.2    6.9      36.702
2013    6       11    19  15    3.74   423.2    6.9      36.724
2013    6       11    19  22    3.74   423.3    6.9      36.745
2013    6       11    19  29    3.74   423.3    6.9      36.767
2013    6       11    19  35    3.75   423.4    6.9      36.789
2013    6       11    19  42    3.75   423.5    6.9      36.811
2013    6       11    19  48    3.75   423.5    6.9      36.833
2013    6       11    19  55    3.75   423.6    6.9      36.855
2013    6       11    20   1    3.75   423.6    6.9      36.877
2013    6       11    20   8    3.76   423.7    6.9      36.899
2013    6       11    20  14    3.76   423.8    6.9      36.923
2013    6       11    20  21    3.76   423.8    6.9      36.947
2013    6       11    20  27    3.76   423.9    6.9      36.971
2013    6       11    20  34    3.76   423.9    6.9      36.997
2013    6       11    20  40    3.77   424.0    6.9      37.023
2013    6       11    20  47    3.77   424.1    6.9      37.049
2013    6       11    20  54    3.77   424.1    6.9      37.077
2013    6       11    21   0    3.77   424.2    6.9      37.105
2013    6       11    21   7    3.77   424.3    7.0      37.133
2013    6       11    21  13    3.77   424.4    7.0      37.162
2013    6       11    21  20    3.78   424.5    7.0      37.191
2013    6       11    21  26    3.78   424.5    7.0      37.220
2013    6       11    21  33    3.78   424.6    7.0      37.249
2013    6       11    21  39    3.78   424.7    7.0      37.278
2013    6       11    21  46    3.78   424.8    7.0      37.307
2013    6       11    21  52    3.78   424.9    7.0      37.335
2013    6       11    21  59    3.79   425.0    7.0      37.363
2013    6       11    22   5    3.79   425.0    7.0      37.391
2013    6       11    22  12    3.79   425.1    7.0      37.418
2013    6       11    22  18    3.79   425.2    7.0      37.445
2013    6       11    22  25    3.79   425.3    7.0      37.471
2013    6       11    22  32    3.79   425.4    7.0      37.496
2013    6       11    22  38    3.79   425.5    7.0      37.522
2013    6       11    22  45    3.80   425.5    7.0      37.547
2013    6       11    22  51    3.80   425.6    7.0      37.572
2013    6       11    22  58    3.80   425.7    7.0      37.596
2013    6       11    23   4    3.80   425.8    7.0      37.620
2013    6       11    23  11    3.80   425.9    7.0      37.644
2013    6       11    23  17    3.80   426.0    7.0      37.668
2013    6       11    23  24    3.80   426.1    7.0      37.691
2013    6       11    23  30    3.80   426.2    7.0      37.715
2013    6       11    23  37    3.81   426.2    7.0      37.738
2013    6       11    23  43    3.81   426.3    7.0      37.761
2013    6       11    23  50    3.81   426.4    7.0      37.785
2013    6       11    23  56    3.81   426.5    7.0      37.808
2013    6       12     0   3    3.81   426.6    7.0      37.832
2013    6       12     0  10    3.81   426.7    7.0      37.856
2013    6       12     0  16    3.81   426.8    7.0      37.880
2013    6       12     0  23    3.81   426.9    7.0      37.905
2013    6       12     0  29    3.82   427.0    7.0      37.929
2013    6       12     0  36    3.82   427.1    7.0      37.954
2013    6       12     0  42    3.82   427.1    7.0      37.978
2013    6       12     0  49    3.82   427.2    7.0      38.003
2013    6       12     0  55    3.82   427.3    7.0      38.029
2013    6       12     1   2    3.82   427.4    7.0      38.054
2013    6       12     1   8    3.82   427.5    7.0      38.080
2013    6       12     1  15    3.83   427.6    7.0      38.106
2013    6       12     1  21    3.83   427.7    7.0      38.132
2013    6       12     1  28    3.83   427.8    7.0      38.159
2013    6       12     1  34    3.83   427.9    7.0      38.186
2013    6       12     1  41    3.83   428.0    7.0      38.214
2013    6       12     1  48    3.84   428.1    7.0      38.242
2013    6       12     1  54    3.84   428.2    7.0      38.271
2013    6       12     2   1    3.84   428.3    7.0      38.301
2013    6       12     2   7    3.84   428.4    7.0      38.332
2013    6       12     2  14    3.84   428.5    7.0      38.364
2013    6       12     2  20    3.85   428.6    7.0      38.398
2013    6       12     2  27    3.85   428.7    7.0      38.434
2013    6       12     2  33    3.85   428.8    7.0      38.471
2013    6       12     2  40    3.85   428.9    7.0      38.509
2013    6       12     2  46    3.86   429.1    7.0      38.548
2013    6       12     2  53    3.86   429.2    7.0      38.588
2013    6       12     2  59    3.86   429.3    7.0      38.629
2013    6       12     3   6    3.86   429.4    7.0      38.670
2013    6       12     3  13    3.87   429.5    7.0      38.712
2013    6       12     3  19    3.87   429.7    7.0      38.755
2013    6       12     3  26    3.87   429.8    7.0      38.798
2013    6       12     3  32    3.87   429.9    7.0      38.841
2013    6       12     3  39    3.87   430.1    7.0      38.884
2013    6       12     3  45    3.88   430.2    7.0      38.927
2013    6       12     3  52    3.88   430.3    7.1      38.969
2013    6       12     3  58    3.88   430.5    7.1      39.012
2013    6       12     4   5    3.88   430.6    7.1      39.054
2013    6       12     4  11    3.88   430.7    7.1      39.095
2013    6       12     4  18    3.88   430.9    7.1      39.137
2013    6       12     4  24    3.89   431.0    7.1      39.178
2013    6       12     4  31    3.89   431.2    7.1      39.219
2013    6       12     4  38    3.89   431.3    7.1      39.259
2013    6       12     4  44    3.89   431.5    7.1      39.298
2013    6       12     4  51    3.89   431.6    7.1      39.336
2013    6       12     4  57    3.89   431.8    7.1      39.374
2013    6       12     5   4    3.89   431.9    7.1      39.411
2013    6       12     5  10    3.89   432.0    7.1      39.446
2013    6       12     5  17    3.90   432.2    7.1      39.482
2013    6       12     5  23    3.90   432.3    7.1      39.516
2013    6       12     5  30    3.90   432.5    7.1      39.549
2013    6       12     5  36    3.90   432.6    7.1      39.581
2013    6       12     5  43    3.90   432.8    7.1      39.613
2013    6       12     5  49    3.90   432.9    7.0      39.644
2013    6       12     5  56    3.90   433.1    7.0      39.675
2013    6       12     6   2    3.90   433.2    7.0      39.705
2013    6       12     6   9    3.90   433.4    7.0      39.734
2013    6       12     6  15    3.90   433.5    7.0      39.763
2013    6       12     6  22    3.90   433.7    7.0      39.792
2013    6       12     6  29    3.91   433.8    7.0      39.820
2013    6       12     6  35    3.91   434.0    7.0      39.848
2013    6       12     6  42    3.91   434.1    7.0      39.876
2013    6       12     6  48    3.91   434.3    7.0      39.903
2013    6       12     6  55    3.91   434.4    7.0      39.931
2013    6       12     7   1    3.91   434.6    7.0      39.958
2013    6       12     7   8    3.91   434.7    7.0      39.985
2013    6       12     7  14    3.91   434.9    7.0      40.012
2013    6       12     7  21    3.91   435.0    7.0      40.039
2013    6       12     7  27    3.91   435.2    7.0      40.066
2013    6       12     7  34    3.92   435.3    7.0      40.094
2013    6       12     7  40    3.92   435.5    7.0      40.122
2013    6       12     7  47    3.92   435.6    7.0      40.150
2013    6       12     7  54    3.92   435.8    7.0      40.179
2013    6       12     8   0    3.92   436.0    7.0      40.210
2013    6       12     8   7    3.92   436.1    7.0      40.241
2013    6       12     8  13    3.92   436.3    7.0      40.273
2013    6       12     8  20    3.92   436.4    7.0      40.306
2013    6       12     8  26    3.93   436.6    7.0      40.339
2013    6       12     8  33    3.93   436.8    7.0      40.374
2013    6       12     8  39    3.93   436.9    7.0      40.410
2013    6       12     8  46    3.93   437.1    7.0      40.446
2013    6       12     8  52    3.93   437.3    7.0      40.484
2013    6       12     8  59    3.94   437.5    7.0      40.522
2013    6       12     9   5    3.94   437.6    7.0      40.561
2013    6       12     9  12    3.94   437.8    7.0      40.602
2013    6       12     9  18    3.94   438.0    7.0      40.642
2013    6       12     9  25    3.94   438.1    7.0      40.684
2013    6       12     9  32    3.95   438.3    7.0      40.728
2013    6       12     9  38    3.95   438.5    7.0      40.773
2013    6       12     9  45    3.95   438.7    7.0      40.821
2013    6       12     9  51    3.95   438.8    7.0      40.872
2013    6       12     9  58    3.95   439.0    7.0      40.923
2013    6       12    10   4    3.96   439.2    7.0      40.977
2013    6       12    10  11    3.96   439.4    7.0      41.031
2013    6       12    10  17    3.96   439.6    7.0      41.087
2013    6       12    10  24    3.96   439.8    7.0      41.144
2013    6       12    10  30    3.96   440.0    7.0      41.201
2013    6       12    10  37    3.96   440.2    7.0      41.258
2013    6       12    10  43    3.97   440.4    7.0      41.315
2013    6       12    10  50    3.97   440.6    7.0      41.372
2013    6       12    10  57    3.97   440.8    7.0      41.429
2013    6       12    11   3    3.97   441.0    7.0      41.483
2013    6       12    11  10    3.97   441.2    7.0      41.536
2013    6       12    11  16    3.97   441.5    7.0      41.587
2013    6       12    11  23    3.97   441.7    7.0      41.637
2013    6       12    11  29    3.97   441.9    7.0      41.685
2013    6       12    11  36    3.97   442.1    7.0      41.732
2013    6       12    11  42    3.97   442.3    7.0      41.778
2013    6       12    11  49    3.97   442.6    7.0      41.822
2013    6       12    11  55    3.97   442.8    7.0      41.864
2013    6       12    12   2    3.97   443.0    7.0      41.906
2013    6       12    12   8    3.97   443.2    7.0      41.946
2013    6       12    12  15    3.97   443.5    7.0      41.985
2013    6       12    12  21    3.97   443.7    7.0      42.023
2013    6       12    12  28    3.97   443.9    7.0      42.060
2013    6       12    12  35    3.97   444.1    7.0      42.096
2013    6       12    12  41    3.97   444.4    7.0      42.131
2013    6       12    12  48    3.97   444.6    7.0      42.166
2013    6       12    12  54    3.97   444.8    7.0      42.200
2013    6       12    13   1    3.97   445.0    7.0      42.233
2013    6       12    13   7    3.97   445.2    7.0      42.266
2013    6       12    13  14    3.97   445.5    7.0      42.298
2013    6       12    13  20    3.97   445.7    7.0      42.330
2013    6       12    13  27    3.97   445.9    7.0      42.361
2013    6       12    13  33    3.97   446.1    6.9      42.393
2013    6       12    13  40    3.97   446.3    6.9      42.424
2013    6       12    13  46    3.97   446.6    6.9      42.455
2013    6       12    13  53    3.97   446.8    6.9      42.487
2013    6       12    13  59    3.97   447.0    6.9      42.518
2013    6       12    14   6    3.97   447.2    6.9      42.549
2013    6       12    14  12    3.97   447.5    6.9      42.581
2013    6       12    14  19    3.97   447.7    6.9      42.613
2013    6       12    14  26    3.97   447.9    6.9      42.646
2013    6       12    14  32    3.97   448.1    6.9      42.680
2013    6       12    14  39    3.97   448.3    6.9      42.714
2013    6       12    14  45    3.97   448.6    6.9      42.750
2013    6       12    14  52    3.97   448.8    6.9      42.787
2013    6       12    14  58    3.97   449.0    6.9      42.825
2013    6       12    15   5    3.97   449.2    6.9      42.865
2013    6       12    15  11    3.97   449.5    6.9      42.908
2013    6       12    15  18    3.97   449.7    6.9      42.955
2013    6       12    15  24    3.97   449.9    6.9      43.004
2013    6       12    15  31    3.97   450.2    6.9      43.057
2013    6       12    15  37    3.97   450.4    6.9      43.112
2013    6       12    15  44    3.97   450.7    6.9      43.168
2013    6       12    15  51    3.98   451.0    6.9      43.227
2013    6       12    15  57    3.98   451.2    6.9      43.286
2013    6       12    16   4    3.98   451.5    6.9      43.346
2013    6       12    16  10    3.98   451.8    6.9      43.405
2013    6       12    16  17    3.98   452.1    6.9      43.466
2013    6       12    16  23    3.98   452.3    6.9      43.525
2013    6       12    16  30    3.98   452.6    6.9      43.581
2013    6       12    16  36    3.98   452.9    6.9      43.636
2013    6       12    16  43    3.98   453.2    6.8      43.687
2013    6       12    16  49    3.98   453.4    6.8      43.738
2013    6       12    16  56    3.98   453.7    6.8      43.787
2013    6       12    17   2    3.97   454.0    6.8      43.834
2013    6       12    17   9    3.97   454.2    6.8      43.880
2013    6       12    17  15    3.97   454.5    6.8      43.925
2013    6       12    17  22    3.97   454.8    6.8      43.969
2013    6       12    17  29    3.97   455.0    6.8      44.012
2013    6       12    17  35    3.97   455.3    6.8      44.053
2013    6       12    17  42    3.97   455.6    6.8      44.094
2013    6       12    17  48    3.97   455.8    6.8      44.133
2013    6       12    17  55    3.96   456.1    6.8      44.172
2013    6       12    18   1    3.96   456.4    6.8      44.210
2013    6       12    18   8    3.96   456.6    6.8      44.248
2013    6       12    18  14    3.96   456.9    6.8      44.284
2013    6       12    18  21    3.96   457.2    6.8      44.319
2013    6       12    18  27    3.96   457.5    6.8      44.353
2013    6       12    18  34    3.95   457.8    6.7      44.387
2013    6       12    18  40    3.95   458.0    6.7      44.419
2013    6       12    18  47    3.95   458.3    6.7      44.451
2013    6       12    18  53    3.95   458.6    6.7      44.482
2013    6       12    19   0    3.94   458.9    6.7      44.513
2013    6       12    19   7    3.94   459.2    6.7      44.543
2013    6       12    19  13    3.94   459.5    6.7      44.573
2013    6       12    19  20    3.94   459.8    6.7      44.602
2013    6       12    19  26    3.93   460.1    6.7      44.630
2013    6       12    19  33    3.93   460.4    6.7      44.657
2013    6       12    19  39    3.93   460.7    6.6      44.684
2013    6       12    19  46    3.93   461.0    6.6      44.709
2013    6       12    19  52    3.92   461.3    6.6      44.734
2013    6       12    19  59    3.92   461.6    6.6      44.758
2013    6       12    20   5    3.92   461.9    6.6      44.781
2013    6       12    20  12    3.91   462.2    6.6      44.804
2013    6       12    20  18    3.91   462.5    6.6      44.827
2013    6       12    20  25    3.91   462.8    6.6      44.850
2013    6       12    20  31    3.90   463.1    6.6      44.872
2013    6       12    20  38    3.90   463.4    6.5      44.895
2013    6       12    20  45    3.90   463.7    6.5      44.918
2013    6       12    20  51    3.89   464.0    6.5      44.941
2013    6       12    20  58    3.89   464.3    6.5      44.965
2013    6       12    21   4    3.89   464.6    6.5      44.989
2013    6       12    21  11    3.88   464.9    6.5      45.014
2013    6       12    21  17    3.88   465.2    6.5      45.039
2013    6       12    21  24    3.88   465.5    6.5      45.064
2013    6       12    21  30    3.87   465.7    6.5      45.090
2013    6       12    21  37    3.87   466.0    6.4      45.117
2013    6       12    21  43    3.86   466.3    6.4      45.144
2013    6       12    21  50    3.86   466.6    6.4      45.171
2013    6       12    21  56    3.86   466.9    6.4      45.199
2013    6       12    22   3    3.85   467.2    6.4      45.228
2013    6       12    22   9    3.85   467.5    6.4      45.257
2013    6       12    22  16    3.85   467.8    6.4      45.286
2013    6       12    22  23    3.84   468.0    6.4      45.316
2013    6       12    22  29    3.84   468.3    6.4      45.347
2013    6       12    22  36    3.83   468.6    6.4      45.380
2013    6       12    22  42    3.83   468.9    6.3      45.414
2013    6       12    22  49    3.83   469.2    6.3      45.450
2013    6       12    22  55    3.82   469.5    6.3      45.486
2013    6       12    23   2    3.82   469.7    6.3      45.524
2013    6       12    23   8    3.81   470.0    6.3      45.561
2013    6       12    23  15    3.81   470.3    6.3      45.599
2013    6       12    23  21    3.80   470.6    6.3      45.635
2013    6       12    23  28    3.80   470.9    6.3      45.671
2013    6       12    23  34    3.80   471.2    6.3      45.707
2013    6       12    23  41    3.79   471.5    6.3      45.741
2013    6       12    23  47    3.79   471.8    6.2      45.772
2013    6       12    23  54    3.78   472.1    6.2      45.800
2013    6       13     0   1    3.78   472.4    6.2      45.826
