year    month   day   hour  minute  B_enl V_enl   n_enl       T_enl
[year] [month] [day] [hour][minute] [nT]  [km/s]  [cm-3]      [kK]
2013    6       15     0   3    3.19   384.8    5.6      25.718
2013    6       15     0   9    3.19   384.7    5.6      25.718
2013    6       15     0  16    3.20   384.6    5.6      25.719
2013    6       15     0  22    3.20   384.5    5.6      25.720
2013    6       15     0  28    3.20   384.3    5.6      25.721
2013    6       15     0  34    3.20   384.2    5.6      25.722
2013    6       15     0  41    3.20   384.1    5.6      25.722
2013    6       15     0  47    3.20   384.0    5.6      25.723
2013    6       15     0  53    3.21   383.9    5.6      25.724
2013    6       15     1   0    3.21   383.8    5.6      25.724
2013    6       15     1   6    3.21   383.6    5.6      25.725
2013    6       15     1  12    3.21   383.5    5.6      25.725
2013    6       15     1  18    3.21   383.4    5.7      25.725
2013    6       15     1  25    3.21   383.3    5.7      25.726
2013    6       15     1  31    3.21   383.2    5.7      25.726
2013    6       15     1  37    3.22   383.1    5.7      25.726
2013    6       15     1  43    3.22   382.9    5.7      25.726
2013    6       15     1  50    3.22   382.8    5.7      25.727
2013    6       15     1  56    3.22   382.7    5.7      25.727
2013    6       15     2   2    3.22   382.6    5.7      25.727
2013    6       15     2   8    3.22   382.5    5.7      25.727
2013    6       15     2  15    3.23   382.4    5.7      25.727
2013    6       15     2  21    3.23   382.2    5.7      25.727
2013    6       15     2  27    3.23   382.1    5.7      25.727
2013    6       15     2  33    3.23   382.0    5.7      25.727
2013    6       15     2  40    3.23   381.9    5.7      25.727
2013    6       15     2  46    3.23   381.8    5.8      25.727
2013    6       15     2  52    3.24   381.7    5.8      25.727
2013    6       15     2  58    3.24   381.5    5.8      25.727
2013    6       15     3   5    3.24   381.4    5.8      25.728
2013    6       15     3  11    3.24   381.3    5.8      25.728
2013    6       15     3  17    3.24   381.2    5.8      25.728
2013    6       15     3  23    3.24   381.1    5.8      25.729
2013    6       15     3  30    3.25   381.0    5.8      25.729
2013    6       15     3  36    3.25   380.9    5.8      25.729
2013    6       15     3  42    3.25   380.7    5.8      25.730
2013    6       15     3  49    3.25   380.6    5.8      25.730
2013    6       15     3  55    3.25   380.5    5.8      25.731
2013    6       15     4   1    3.25   380.4    5.8      25.731
2013    6       15     4   7    3.26   380.3    5.8      25.732
2013    6       15     4  14    3.26   380.2    5.9      25.733
2013    6       15     4  20    3.26   380.1    5.9      25.734
2013    6       15     4  26    3.26   380.0    5.9      25.734
2013    6       15     4  32    3.26   379.9    5.9      25.735
2013    6       15     4  39    3.27   379.7    5.9      25.736
2013    6       15     4  45    3.27   379.6    5.9      25.737
2013    6       15     4  51    3.27   379.5    5.9      25.738
2013    6       15     4  58    3.27   379.4    5.9      25.739
2013    6       15     5   4    3.27   379.3    5.9      25.740
2013    6       15     5  10    3.28   379.2    5.9      25.741
2013    6       15     5  16    3.28   379.1    5.9      25.742
2013    6       15     5  23    3.28   379.0    5.9      25.743
2013    6       15     5  29    3.28   378.9    5.9      25.744
2013    6       15     5  35    3.28   378.8    5.9      25.745
2013    6       15     5  42    3.28   378.7    6.0      25.746
2013    6       15     5  48    3.29   378.6    6.0      25.748
2013    6       15     5  54    3.29   378.5    6.0      25.749
2013    6       15     6   0    3.29   378.4    6.0      25.750
2013    6       15     6   7    3.29   378.3    6.0      25.751
2013    6       15     6  13    3.29   378.2    6.0      25.752
2013    6       15     6  19    3.30   378.0    6.0      25.754
2013    6       15     6  26    3.30   377.9    6.0      25.755
2013    6       15     6  32    3.30   377.8    6.0      25.756
2013    6       15     6  38    3.30   377.7    6.0      25.757
2013    6       15     6  44    3.30   377.6    6.0      25.759
2013    6       15     6  51    3.31   377.5    6.0      25.760
2013    6       15     6  57    3.31   377.4    6.0      25.761
2013    6       15     7   3    3.31   377.3    6.0      25.762
2013    6       15     7  10    3.31   377.2    6.1      25.763
2013    6       15     7  16    3.31   377.1    6.1      25.764
2013    6       15     7  22    3.31   377.0    6.1      25.765
2013    6       15     7  28    3.32   376.9    6.1      25.766
2013    6       15     7  35    3.32   376.8    6.1      25.767
2013    6       15     7  41    3.32   376.7    6.1      25.768
2013    6       15     7  47    3.32   376.6    6.1      25.768
2013    6       15     7  53    3.32   376.5    6.1      25.769
2013    6       15     8   0    3.33   376.4    6.1      25.769
2013    6       15     8   6    3.33   376.3    6.1      25.770
2013    6       15     8  12    3.33   376.2    6.1      25.770
2013    6       15     8  18    3.33   376.1    6.1      25.771
2013    6       15     8  25    3.33   376.0    6.1      25.771
2013    6       15     8  31    3.33   375.9    6.1      25.771
2013    6       15     8  37    3.34   375.8    6.2      25.772
2013    6       15     8  43    3.34   375.7    6.2      25.772
2013    6       15     8  50    3.34   375.6    6.2      25.772
2013    6       15     8  56    3.34   375.5    6.2      25.772
2013    6       15     9   2    3.34   375.4    6.2      25.772
2013    6       15     9   8    3.35   375.3    6.2      25.772
2013    6       15     9  15    3.35   375.2    6.2      25.772
2013    6       15     9  21    3.35   375.1    6.2      25.772
2013    6       15     9  27    3.35   375.0    6.2      25.771
2013    6       15     9  34    3.35   374.9    6.2      25.771
2013    6       15     9  40    3.35   374.8    6.2      25.771
2013    6       15     9  46    3.36   374.7    6.2      25.771
2013    6       15     9  52    3.36   374.6    6.2      25.771
2013    6       15     9  59    3.36   374.5    6.2      25.770
2013    6       15    10   5    3.36   374.4    6.3      25.770
2013    6       15    10  11    3.36   374.3    6.3      25.770
2013    6       15    10  17    3.37   374.2    6.3      25.770
2013    6       15    10  24    3.37   374.1    6.3      25.770
2013    6       15    10  30    3.37   374.0    6.3      25.770
2013    6       15    10  36    3.37   373.9    6.3      25.770
2013    6       15    10  42    3.37   373.8    6.3      25.770
2013    6       15    10  49    3.37   373.7    6.3      25.770
2013    6       15    10  55    3.38   373.6    6.3      25.770
2013    6       15    11   1    3.38   373.5    6.3      25.770
2013    6       15    11   7    3.38   373.4    6.3      25.770
2013    6       15    11  14    3.38   373.3    6.3      25.770
2013    6       15    11  20    3.38   373.2    6.3      25.770
2013    6       15    11  26    3.39   373.1    6.4      25.770
2013    6       15    11  33    3.39   373.0    6.4      25.771
2013    6       15    11  39    3.39   372.9    6.4      25.771
2013    6       15    11  45    3.39   372.8    6.4      25.772
2013    6       15    11  51    3.39   372.7    6.4      25.772
2013    6       15    11  58    3.39   372.6    6.4      25.772
2013    6       15    12   4    3.40   372.6    6.4      25.773
2013    6       15    12  10    3.40   372.5    6.4      25.773
2013    6       15    12  16    3.40   372.4    6.4      25.774
2013    6       15    12  23    3.40   372.3    6.4      25.775
2013    6       15    12  29    3.40   372.2    6.4      25.775
2013    6       15    12  35    3.41   372.1    6.4      25.776
2013    6       15    12  42    3.41   372.0    6.4      25.777
2013    6       15    12  48    3.41   371.9    6.4      25.777
2013    6       15    12  54    3.41   371.8    6.5      25.778
2013    6       15    13   1    3.41   371.7    6.5      25.779
2013    6       15    13   7    3.42   371.6    6.5      25.780
2013    6       15    13  13    3.42   371.5    6.5      25.781
2013    6       15    13  19    3.42   371.4    6.5      25.781
2013    6       15    13  26    3.42   371.3    6.5      25.782
2013    6       15    13  32    3.42   371.2    6.5      25.783
2013    6       15    13  38    3.42   371.1    6.5      25.784
2013    6       15    13  44    3.43   371.0    6.5      25.785
2013    6       15    13  51    3.43   370.9    6.5      25.786
2013    6       15    13  57    3.43   370.8    6.5      25.787
2013    6       15    14   3    3.43   370.7    6.5      25.788
2013    6       15    14  10    3.43   370.6    6.5      25.788
2013    6       15    14  16    3.44   370.5    6.6      25.789
2013    6       15    14  22    3.44   370.4    6.6      25.790
2013    6       15    14  28    3.44   370.3    6.6      25.791
2013    6       15    14  35    3.44   370.2    6.6      25.792
2013    6       15    14  41    3.44   370.1    6.6      25.793
2013    6       15    14  47    3.45   370.0    6.6      25.793
2013    6       15    14  54    3.45   369.9    6.6      25.794
2013    6       15    15   0    3.45   369.8    6.6      25.795
2013    6       15    15   6    3.45   369.7    6.6      25.796
2013    6       15    15  12    3.45   369.6    6.6      25.796
2013    6       15    15  19    3.46   369.5    6.6      25.797
2013    6       15    15  25    3.46   369.4    6.6      25.798
2013    6       15    15  31    3.46   369.3    6.6      25.798
2013    6       15    15  37    3.46   369.2    6.6      25.799
2013    6       15    15  44    3.46   369.1    6.7      25.799
2013    6       15    15  50    3.46   369.1    6.7      25.800
2013    6       15    15  56    3.47   369.0    6.7      25.800
2013    6       15    16   2    3.47   368.9    6.7      25.801
2013    6       15    16   9    3.47   368.8    6.7      25.801
2013    6       15    16  15    3.47   368.7    6.7      25.802
2013    6       15    16  21    3.47   368.6    6.7      25.802
2013    6       15    16  27    3.48   368.5    6.7      25.803
2013    6       15    16  34    3.48   368.4    6.7      25.803
2013    6       15    16  40    3.48   368.3    6.7      25.803
2013    6       15    16  46    3.48   368.2    6.7      25.804
2013    6       15    16  52    3.48   368.1    6.7      25.804
2013    6       15    16  59    3.49   368.0    6.7      25.804
2013    6       15    17   5    3.49   367.9    6.8      25.805
2013    6       15    17  11    3.49   367.8    6.8      25.805
2013    6       15    17  17    3.49   367.7    6.8      25.805
2013    6       15    17  24    3.49   367.6    6.8      25.806
2013    6       15    17  30    3.50   367.5    6.8      25.806
2013    6       15    17  36    3.50   367.4    6.8      25.806
2013    6       15    17  43    3.50   367.3    6.8      25.806
2013    6       15    17  49    3.50   367.2    6.8      25.806
2013    6       15    17  55    3.50   367.1    6.8      25.807
2013    6       15    18   1    3.51   367.0    6.8      25.807
2013    6       15    18   8    3.51   366.9    6.8      25.807
2013    6       15    18  14    3.51   366.8    6.8      25.807
2013    6       15    18  20    3.51   366.7    6.8      25.808
2013    6       15    18  26    3.51   366.6    6.9      25.808
2013    6       15    18  33    3.52   366.5    6.9      25.808
2013    6       15    18  39    3.52   366.4    6.9      25.808
2013    6       15    18  45    3.52   366.3    6.9      25.809
2013    6       15    18  51    3.52   366.2    6.9      25.809
2013    6       15    18  58    3.53   366.1    6.9      25.809
2013    6       15    19   4    3.53   366.0    6.9      25.809
2013    6       15    19  10    3.53   365.9    6.9      25.810
2013    6       15    19  17    3.53   365.8    6.9      25.810
2013    6       15    19  23    3.53   365.7    6.9      25.810
2013    6       15    19  29    3.54   365.6    6.9      25.811
2013    6       15    19  35    3.54   365.5    6.9      25.811
2013    6       15    19  42    3.54   365.4    7.0      25.811
2013    6       15    19  48    3.54   365.3    7.0      25.812
2013    6       15    19  54    3.54   365.2    7.0      25.812
2013    6       15    20   1    3.55   365.1    7.0      25.812
2013    6       15    20   7    3.55   365.0    7.0      25.813
2013    6       15    20  13    3.55   364.9    7.0      25.813
2013    6       15    20  19    3.55   364.8    7.0      25.813
2013    6       15    20  26    3.55   364.7    7.0      25.814
2013    6       15    20  32    3.56   364.6    7.0      25.814
2013    6       15    20  38    3.56   364.5    7.0      25.814
2013    6       15    20  45    3.56   364.3    7.0      25.815
2013    6       15    20  51    3.56   364.2    7.0      25.815
2013    6       15    20  57    3.57   364.1    7.1      25.815
2013    6       15    21   3    3.57   364.0    7.1      25.816
2013    6       15    21  10    3.57   363.9    7.1      25.816
2013    6       15    21  16    3.57   363.8    7.1      25.817
2013    6       15    21  22    3.57   363.7    7.1      25.817
2013    6       15    21  29    3.58   363.6    7.1      25.817
2013    6       15    21  35    3.58   363.5    7.1      25.818
2013    6       15    21  41    3.58   363.4    7.1      25.818
2013    6       15    21  47    3.58   363.3    7.1      25.819
2013    6       15    21  54    3.59   363.2    7.1      25.819
2013    6       15    22   0    3.59   363.1    7.1      25.820
2013    6       15    22   6    3.59   363.0    7.1      25.820
2013    6       15    22  12    3.59   362.9    7.2      25.821
2013    6       15    22  19    3.60   362.8    7.2      25.822
2013    6       15    22  25    3.60   362.7    7.2      25.822
2013    6       15    22  31    3.60   362.6    7.2      25.823
2013    6       15    22  38    3.60   362.5    7.2      25.824
2013    6       15    22  44    3.61   362.4    7.2      25.825
2013    6       15    22  50    3.61   362.3    7.2      25.826
2013    6       15    22  56    3.61   362.2    7.2      25.827
2013    6       15    23   3    3.61   362.1    7.2      25.828
2013    6       15    23   9    3.62   362.0    7.2      25.830
2013    6       15    23  15    3.62   361.8    7.2      25.831
2013    6       15    23  21    3.62   361.7    7.3      25.833
2013    6       15    23  28    3.62   361.6    7.3      25.834
2013    6       15    23  34    3.63   361.5    7.3      25.836
2013    6       15    23  40    3.63   361.4    7.3      25.838
2013    6       15    23  46    3.63   361.3    7.3      25.840
2013    6       15    23  53    3.63   361.2    7.3      25.843
2013    6       15    23  59    3.64   361.1    7.3      25.845
2013    6       16     0   5    3.64   361.0    7.3      25.847
2013    6       16     0  11    3.64   360.9    7.3      25.850
2013    6       16     0  18    3.64   360.8    7.3      25.853
2013    6       16     0  24    3.65   360.7    7.3      25.856
2013    6       16     0  30    3.65   360.6    7.4      25.859
2013    6       16     0  36    3.65   360.5    7.4      25.862
2013    6       16     0  43    3.66   360.4    7.4      25.865
2013    6       16     0  49    3.66   360.3    7.4      25.868
2013    6       16     0  55    3.66   360.2    7.4      25.872
2013    6       16     1   1    3.66   360.1    7.4      25.876
2013    6       16     1   8    3.67   360.0    7.4      25.879
2013    6       16     1  14    3.67   359.9    7.4      25.883
2013    6       16     1  20    3.67   359.8    7.4      25.887
2013    6       16     1  26    3.68   359.7    7.4      25.891
2013    6       16     1  33    3.68   359.6    7.5      25.895
2013    6       16     1  39    3.68   359.5    7.5      25.899
2013    6       16     1  45    3.69   359.4    7.5      25.904
2013    6       16     1  52    3.69   359.3    7.5      25.908
2013    6       16     1  58    3.69   359.2    7.5      25.912
2013    6       16     2   4    3.70   359.1    7.5      25.917
2013    6       16     2  10    3.70   359.0    7.5      25.922
2013    6       16     2  17    3.70   358.9    7.5      25.926
2013    6       16     2  23    3.70   358.8    7.5      25.931
2013    6       16     2  29    3.71   358.7    7.6      25.936
2013    6       16     2  36    3.71   358.6    7.6      25.941
2013    6       16     2  42    3.71   358.5    7.6      25.946
2013    6       16     2  48    3.72   358.4    7.6      25.951
2013    6       16     2  54    3.72   358.3    7.6      25.956
2013    6       16     3   1    3.72   358.2    7.6      25.961
2013    6       16     3   7    3.73   358.1    7.6      25.966
2013    6       16     3  13    3.73   358.0    7.6      25.971
2013    6       16     3  19    3.73   357.9    7.6      25.977
2013    6       16     3  26    3.74   357.8    7.6      25.982
2013    6       16     3  32    3.74   357.7    7.7      25.988
2013    6       16     3  38    3.74   357.6    7.7      25.993
2013    6       16     3  45    3.75   357.5    7.7      25.999
2013    6       16     3  51    3.75   357.4    7.7      26.005
2013    6       16     3  57    3.75   357.3    7.7      26.010
2013    6       16     4   3    3.76   357.2    7.7      26.016
2013    6       16     4  10    3.76   357.1    7.7      26.022
2013    6       16     4  16    3.76   357.0    7.7      26.028
2013    6       16     4  22    3.77   356.9    7.7      26.035
2013    6       16     4  29    3.77   356.8    7.8      26.041
2013    6       16     4  35    3.77   356.7    7.8      26.048
2013    6       16     4  41    3.78   356.6    7.8      26.054
2013    6       16     4  47    3.78   356.5    7.8      26.061
2013    6       16     4  54    3.79   356.4    7.8      26.068
2013    6       16     5   0    3.79   356.3    7.8      26.076
2013    6       16     5   6    3.79   356.2    7.8      26.083
2013    6       16     5  13    3.80   356.1    7.8      26.091
2013    6       16     5  19    3.80   356.0    7.9      26.098
2013    6       16     5  25    3.80   355.9    7.9      26.107
2013    6       16     5  31    3.81   355.8    7.9      26.115
2013    6       16     5  38    3.81   355.7    7.9      26.124
2013    6       16     5  44    3.82   355.6    7.9      26.132
2013    6       16     5  50    3.82   355.5    7.9      26.142
2013    6       16     5  56    3.82   355.4    7.9      26.151
2013    6       16     6   3    3.83   355.3    7.9      26.161
2013    6       16     6   9    3.83   355.2    8.0      26.171
2013    6       16     6  15    3.84   355.1    8.0      26.182
2013    6       16     6  21    3.84   355.0    8.0      26.193
2013    6       16     6  28    3.85   355.0    8.0      26.204
2013    6       16     6  34    3.85   354.9    8.0      26.216
2013    6       16     6  40    3.85   354.8    8.0      26.228
2013    6       16     6  46    3.86   354.7    8.0      26.240
2013    6       16     6  53    3.86   354.6    8.1      26.253
2013    6       16     6  59    3.87   354.5    8.1      26.266
2013    6       16     7   5    3.87   354.4    8.1      26.279
2013    6       16     7  11    3.88   354.3    8.1      26.293
2013    6       16     7  18    3.88   354.3    8.1      26.308
2013    6       16     7  24    3.89   354.2    8.1      26.322
2013    6       16     7  30    3.89   354.1    8.2      26.337
2013    6       16     7  37    3.90   354.0    8.2      26.353
2013    6       16     7  43    3.90   353.9    8.2      26.369
2013    6       16     7  49    3.91   353.9    8.2      26.385
2013    6       16     7  55    3.91   353.8    8.2      26.402
2013    6       16     8   2    3.91   353.7    8.2      26.419
2013    6       16     8   8    3.92   353.6    8.2      26.437
2013    6       16     8  14    3.92   353.6    8.3      26.455
2013    6       16     8  20    3.93   353.5    8.3      26.473
2013    6       16     8  27    3.93   353.4    8.3      26.492
2013    6       16     8  33    3.94   353.3    8.3      26.511
2013    6       16     8  39    3.94   353.3    8.3      26.531
2013    6       16     8  45    3.95   353.2    8.3      26.550
2013    6       16     8  52    3.95   353.1    8.4      26.570
2013    6       16     8  58    3.96   353.1    8.4      26.591
2013    6       16     9   4    3.96   353.0    8.4      26.611
2013    6       16     9  10    3.97   352.9    8.4      26.632
2013    6       16     9  17    3.97   352.9    8.4      26.653
2013    6       16     9  23    3.98   352.8    8.4      26.675
2013    6       16     9  29    3.98   352.7    8.5      26.696
2013    6       16     9  36    3.99   352.7    8.5      26.717
2013    6       16     9  42    3.99   352.6    8.5      26.739
2013    6       16     9  48    4.00   352.5    8.5      26.761
2013    6       16     9  54    4.00   352.5    8.5      26.782
2013    6       16    10   1    4.01   352.4    8.5      26.804
2013    6       16    10   7    4.01   352.3    8.5      26.826
2013    6       16    10  13    4.02   352.3    8.6      26.848
2013    6       16    10  20    4.02   352.2    8.6      26.870
2013    6       16    10  26    4.03   352.1    8.6      26.892
2013    6       16    10  32    4.03   352.1    8.6      26.914
2013    6       16    10  38    4.04   352.0    8.6      26.936
2013    6       16    10  45    4.05   352.0    8.6      26.958
2013    6       16    10  51    4.05   351.9    8.7      26.980
2013    6       16    10  57    4.06   351.9    8.7      27.002
2013    6       16    11   4    4.06   351.8    8.7      27.024
2013    6       16    11  10    4.07   351.7    8.7      27.047
2013    6       16    11  16    4.07   351.7    8.7      27.069
2013    6       16    11  22    4.08   351.6    8.7      27.092
2013    6       16    11  29    4.08   351.6    8.8      27.114
2013    6       16    11  35    4.09   351.5    8.8      27.137
2013    6       16    11  41    4.09   351.5    8.8      27.160
2013    6       16    11  48    4.10   351.4    8.8      27.183
2013    6       16    11  54    4.10   351.4    8.8      27.206
2013    6       16    12   0    4.11   351.3    8.8      27.229
2013    6       16    12   6    4.12   351.3    8.9      27.252
2013    6       16    12  13    4.12   351.2    8.9      27.276
2013    6       16    12  19    4.13   351.2    8.9      27.300
2013    6       16    12  25    4.13   351.1    8.9      27.323
2013    6       16    12  31    4.14   351.1    8.9      27.347
2013    6       16    12  38    4.14   351.0    8.9      27.371
2013    6       16    12  44    4.15   351.0    9.0      27.396
2013    6       16    12  50    4.16   350.9    9.0      27.420
2013    6       16    12  57    4.16   350.9    9.0      27.445
2013    6       16    13   3    4.17   350.8    9.0      27.470
2013    6       16    13   9    4.17   350.8    9.0      27.495
2013    6       16    13  15    4.18   350.8    9.0      27.520
2013    6       16    13  22    4.19   350.7    9.1      27.546
2013    6       16    13  28    4.19   350.7    9.1      27.571
2013    6       16    13  34    4.20   350.6    9.1      27.597
2013    6       16    13  40    4.21   350.6    9.1      27.623
2013    6       16    13  47    4.21   350.6    9.1      27.650
2013    6       16    13  53    4.22   350.5    9.2      27.677
2013    6       16    13  59    4.22   350.5    9.2      27.704
2013    6       16    14   5    4.23   350.5    9.2      27.732
2013    6       16    14  12    4.24   350.4    9.2      27.760
2013    6       16    14  18    4.24   350.4    9.2      27.789
2013    6       16    14  24    4.25   350.4    9.3      27.818
2013    6       16    14  30    4.26   350.3    9.3      27.848
2013    6       16    14  37    4.26   350.3    9.3      27.879
2013    6       16    14  43    4.27   350.3    9.3      27.910
2013    6       16    14  49    4.28   350.3    9.3      27.942
2013    6       16    14  55    4.28   350.3    9.4      27.975
2013    6       16    15   2    4.29   350.2    9.4      28.008
2013    6       16    15   8    4.30   350.2    9.4      28.042
2013    6       16    15  14    4.30   350.2    9.4      28.076
2013    6       16    15  20    4.31   350.2    9.4      28.111
2013    6       16    15  27    4.32   350.2    9.5      28.147
2013    6       16    15  33    4.32   350.2    9.5      28.183
2013    6       16    15  39    4.33   350.1    9.5      28.219
2013    6       16    15  46    4.34   350.1    9.5      28.255
2013    6       16    15  52    4.34   350.1    9.5      28.292
2013    6       16    15  58    4.35   350.1    9.6      28.328
2013    6       16    16   4    4.36   350.1    9.6      28.365
2013    6       16    16  11    4.36   350.1    9.6      28.402
2013    6       16    16  17    4.37   350.1    9.6      28.439
2013    6       16    16  23    4.38   350.1    9.6      28.476
2013    6       16    16  29    4.38   350.0    9.6      28.512
2013    6       16    16  36    4.39   350.0    9.7      28.549
2013    6       16    16  42    4.40   350.0    9.7      28.585
2013    6       16    16  48    4.40   350.0    9.7      28.621
2013    6       16    16  54    4.41   350.0    9.7      28.657
2013    6       16    17   1    4.41   350.0    9.7      28.692
2013    6       16    17   7    4.42   350.0    9.8      28.728
2013    6       16    17  13    4.43   350.0    9.8      28.763
2013    6       16    17  20    4.43   350.0    9.8      28.798
2013    6       16    17  26    4.44   350.0    9.8      28.832
2013    6       16    17  32    4.45   350.0    9.8      28.867
2013    6       16    17  38    4.45   350.0    9.8      28.901
2013    6       16    17  45    4.46   349.9    9.9      28.935
2013    6       16    17  51    4.47   349.9    9.9      28.969
2013    6       16    17  57    4.47   349.9    9.9      29.002
2013    6       16    18   4    4.48   349.9    9.9      29.035
2013    6       16    18  10    4.49   349.9    9.9      29.068
2013    6       16    18  16    4.49   349.9    9.9      29.101
2013    6       16    18  22    4.50   349.9    9.9      29.134
2013    6       16    18  29    4.51   349.9   10.0      29.166
2013    6       16    18  35    4.51   349.9   10.0      29.199
2013    6       16    18  41    4.52   349.9   10.0      29.231
2013    6       16    18  47    4.53   349.9   10.0      29.263
2013    6       16    18  54    4.53   349.9   10.0      29.295
2013    6       16    19   0    4.54   349.9   10.0      29.327
2013    6       16    19   6    4.55   349.9   10.1      29.359
2013    6       16    19  13    4.56   349.9   10.1      29.390
2013    6       16    19  19    4.56   349.9   10.1      29.422
2013    6       16    19  25    4.57   349.9   10.1      29.454
2013    6       16    19  31    4.58   349.9   10.1      29.485
2013    6       16    19  38    4.58   349.9   10.1      29.517
2013    6       16    19  44    4.59   349.9   10.2      29.549
2013    6       16    19  50    4.60   349.9   10.2      29.580
2013    6       16    19  56    4.60   349.9   10.2      29.612
2013    6       16    20   3    4.61   349.9   10.2      29.644
2013    6       16    20   9    4.62   349.9   10.2      29.676
2013    6       16    20  15    4.63   350.0   10.2      29.707
2013    6       16    20  21    4.63   350.0   10.3      29.740
2013    6       16    20  28    4.64   350.0   10.3      29.772
2013    6       16    20  34    4.65   350.0   10.3      29.804
2013    6       16    20  40    4.65   350.0   10.3      29.836
2013    6       16    20  46    4.66   350.0   10.3      29.869
2013    6       16    20  53    4.67   350.0   10.3      29.901
2013    6       16    20  59    4.68   350.0   10.4      29.934
2013    6       16    21   5    4.68   350.0   10.4      29.967
2013    6       16    21  11    4.69   350.1   10.4      30.001
2013    6       16    21  18    4.70   350.1   10.4      30.034
2013    6       16    21  24    4.71   350.1   10.4      30.068
2013    6       16    21  30    4.71   350.1   10.5      30.103
2013    6       16    21  36    4.72   350.1   10.5      30.137
2013    6       16    21  43    4.73   350.2   10.5      30.173
2013    6       16    21  49    4.74   350.2   10.5      30.209
2013    6       16    21  55    4.75   350.2   10.5      30.245
2013    6       16    22   1    4.75   350.2   10.6      30.282
2013    6       16    22   8    4.76   350.2   10.6      30.319
2013    6       16    22  14    4.77   350.3   10.6      30.357
2013    6       16    22  20    4.78   350.3   10.6      30.395
2013    6       16    22  26    4.78   350.3   10.6      30.434
2013    6       16    22  33    4.79   350.4   10.7      30.473
2013    6       16    22  39    4.80   350.4   10.7      30.513
2013    6       16    22  45    4.81   350.4   10.7      30.554
2013    6       16    22  51    4.82   350.4   10.7      30.594
2013    6       16    22  58    4.82   350.5   10.7      30.635
2013    6       16    23   4    4.83   350.5   10.7      30.677
2013    6       16    23  10    4.84   350.5   10.8      30.719
2013    6       16    23  16    4.85   350.6   10.8      30.761
2013    6       16    23  23    4.86   350.6   10.8      30.804
2013    6       16    23  29    4.86   350.6   10.8      30.848
2013    6       16    23  35    4.87   350.7   10.8      30.892
2013    6       16    23  42    4.88   350.7   10.9      30.936
2013    6       16    23  48    4.89   350.8   10.9      30.981
2013    6       16    23  54    4.90   350.8   10.9      31.026
2013    6       17     0   0    4.91   350.8   10.9      31.071
2013    6       17     0   7    4.91   350.9   10.9      31.116
2013    6       17     0  13    4.92   350.9   11.0      31.161
2013    6       17     0  19    4.93   351.0   11.0      31.207
2013    6       17     0  25    4.94   351.0   11.0      31.252
2013    6       17     0  32    4.95   351.1   11.0      31.297
2013    6       17     0  38    4.95   351.1   11.0      31.342
2013    6       17     0  44    4.96   351.2   11.0      31.387
2013    6       17     0  51    4.97   351.2   11.1      31.431
2013    6       17     0  57    4.98   351.3   11.1      31.475
2013    6       17     1   3    4.99   351.3   11.1      31.519
2013    6       17     1   9    4.99   351.4   11.1      31.562
2013    6       17     1  16    5.00   351.4   11.1      31.604
2013    6       17     1  22    5.01   351.5   11.1      31.646
2013    6       17     1  28    5.02   351.5   11.2      31.687
2013    6       17     1  35    5.03   351.6   11.2      31.729
2013    6       17     1  41    5.03   351.6   11.2      31.769
2013    6       17     1  47    5.04   351.7   11.2      31.809
2013    6       17     1  53    5.05   351.7   11.2      31.849
2013    6       17     2   0    5.06   351.8   11.2      31.889
2013    6       17     2   6    5.07   351.8   11.3      31.928
2013    6       17     2  12    5.08   351.9   11.3      31.966
2013    6       17     2  19    5.08   351.9   11.3      32.005
2013    6       17     2  25    5.09   352.0   11.3      32.043
2013    6       17     2  31    5.10   352.1   11.3      32.081
2013    6       17     2  37    5.11   352.1   11.3      32.119
2013    6       17     2  44    5.12   352.2   11.3      32.157
2013    6       17     2  50    5.13   352.2   11.4      32.195
2013    6       17     2  56    5.13   352.3   11.4      32.232
2013    6       17     3   3    5.14   352.3   11.4      32.270
2013    6       17     3   9    5.15   352.4   11.4      32.307
2013    6       17     3  15    5.16   352.4   11.4      32.345
2013    6       17     3  21    5.17   352.5   11.4      32.383
2013    6       17     3  28    5.18   352.6   11.5      32.420
2013    6       17     3  34    5.19   352.6   11.5      32.458
2013    6       17     3  40    5.20   352.7   11.5      32.496
2013    6       17     3  47    5.20   352.7   11.5      32.534
2013    6       17     3  53    5.21   352.8   11.5      32.572
2013    6       17     3  59    5.22   352.9   11.5      32.611
2013    6       17     4   5    5.23   352.9   11.5      32.650
2013    6       17     4  12    5.24   353.0   11.6      32.688
2013    6       17     4  18    5.25   353.1   11.6      32.727
2013    6       17     4  24    5.26   353.1   11.6      32.767
2013    6       17     4  31    5.27   353.2   11.6      32.807
2013    6       17     4  37    5.28   353.3   11.6      32.847
2013    6       17     4  43    5.29   353.3   11.6      32.887
2013    6       17     4  49    5.30   353.4   11.7      32.928
2013    6       17     4  56    5.31   353.5   11.7      32.970
2013    6       17     5   2    5.32   353.6   11.7      33.012
2013    6       17     5   8    5.33   353.6   11.7      33.055
2013    6       17     5  14    5.33   353.7   11.7      33.099
2013    6       17     5  21    5.34   353.8   11.8      33.142
2013    6       17     5  27    5.35   353.9   11.8      33.187
2013    6       17     5  33    5.36   354.0   11.8      33.232
2013    6       17     5  40    5.37   354.0   11.8      33.277
2013    6       17     5  46    5.38   354.1   11.8      33.323
2013    6       17     5  52    5.39   354.2   11.8      33.370
2013    6       17     5  58    5.40   354.3   11.9      33.417
2013    6       17     6   5    5.41   354.4   11.9      33.465
2013    6       17     6  11    5.42   354.5   11.9      33.513
2013    6       17     6  17    5.43   354.5   11.9      33.562
2013    6       17     6  24    5.44   354.6   11.9      33.612
2013    6       17     6  30    5.45   354.7   12.0      33.661
2013    6       17     6  36    5.46   354.8   12.0      33.712
2013    6       17     6  42    5.47   354.9   12.0      33.763
2013    6       17     6  49    5.48   355.0   12.0      33.815
2013    6       17     6  55    5.49   355.1   12.0      33.867
2013    6       17     7   1    5.49   355.2   12.1      33.919
2013    6       17     7   7    5.50   355.3   12.1      33.972
2013    6       17     7  14    5.51   355.4   12.1      34.025
2013    6       17     7  20    5.52   355.5   12.1      34.079
2013    6       17     7  26    5.53   355.7   12.1      34.132
2013    6       17     7  33    5.54   355.8   12.1      34.186
2013    6       17     7  39    5.55   355.9   12.2      34.239
2013    6       17     7  45    5.56   356.0   12.2      34.293
2013    6       17     7  51    5.57   356.1   12.2      34.346
2013    6       17     7  58    5.58   356.2   12.2      34.399
2013    6       17     8   4    5.59   356.4   12.2      34.452
2013    6       17     8  10    5.60   356.5   12.2      34.505
2013    6       17     8  17    5.60   356.6   12.3      34.557
2013    6       17     8  23    5.61   356.7   12.3      34.608
2013    6       17     8  29    5.62   356.9   12.3      34.659
2013    6       17     8  35    5.63   357.0   12.3      34.710
2013    6       17     8  42    5.64   357.1   12.3      34.760
2013    6       17     8  48    5.65   357.2   12.3      34.810
2013    6       17     8  54    5.66   357.4   12.3      34.859
2013    6       17     9   0    5.67   357.5   12.4      34.908
2013    6       17     9   7    5.68   357.6   12.4      34.956
2013    6       17     9  13    5.68   357.7   12.4      35.004
2013    6       17     9  19    5.69   357.9   12.4      35.052
2013    6       17     9  26    5.70   358.0   12.4      35.100
2013    6       17     9  32    5.71   358.1   12.4      35.147
2013    6       17     9  38    5.72   358.2   12.4      35.194
2013    6       17     9  45    5.73   358.4   12.5      35.242
2013    6       17     9  51    5.74   358.5   12.5      35.289
2013    6       17     9  57    5.75   358.6   12.5      35.336
2013    6       17    10   3    5.76   358.8   12.5      35.384
2013    6       17    10  10    5.77   358.9   12.5      35.432
2013    6       17    10  16    5.78   359.0   12.5      35.480
2013    6       17    10  22    5.79   359.1   12.6      35.528
2013    6       17    10  28    5.80   359.3   12.6      35.577
2013    6       17    10  35    5.81   359.4   12.6      35.627
2013    6       17    10  41    5.82   359.6   12.6      35.679
2013    6       17    10  47    5.83   359.7   12.6      35.733
2013    6       17    10  54    5.84   359.8   12.6      35.788
2013    6       17    11   0    5.85   360.0   12.7      35.845
2013    6       17    11   6    5.86   360.2   12.7      35.904
2013    6       17    11  12    5.87   360.3   12.7      35.964
2013    6       17    11  19    5.88   360.5   12.7      36.026
2013    6       17    11  25    5.89   360.6   12.7      36.088
2013    6       17    11  31    5.90   360.8   12.7      36.151
2013    6       17    11  38    5.91   361.0   12.8      36.215
2013    6       17    11  44    5.92   361.1   12.8      36.280
2013    6       17    11  50    5.93   361.3   12.8      36.346
2013    6       17    11  56    5.94   361.5   12.8      36.412
2013    6       17    12   3    5.96   361.7   12.8      36.479
2013    6       17    12   9    5.97   361.8   12.9      36.544
2013    6       17    12  15    5.98   362.0   12.9      36.610
2013    6       17    12  21    5.99   362.2   12.9      36.674
2013    6       17    12  28    6.00   362.4   12.9      36.738
2013    6       17    12  34    6.01   362.5   12.9      36.800
2013    6       17    12  40    6.02   362.7   12.9      36.863
2013    6       17    12  47    6.03   362.9   12.9      36.924
2013    6       17    12  53    6.04   363.1   12.9      36.984
2013    6       17    12  59    6.04   363.2   13.0      37.044
2013    6       17    13   5    6.05   363.4   13.0      37.103
2013    6       17    13  12    6.06   363.6   13.0      37.161
2013    6       17    13  18    6.07   363.8   13.0      37.219
2013    6       17    13  24    6.08   364.0   13.0      37.276
2013    6       17    13  31    6.09   364.1   13.0      37.332
2013    6       17    13  37    6.10   364.3   13.0      37.388
2013    6       17    13  43    6.11   364.5   13.0      37.442
2013    6       17    13  49    6.11   364.7   13.0      37.496
2013    6       17    13  56    6.12   364.8   13.0      37.549
2013    6       17    14   2    6.13   365.0   13.0      37.601
2013    6       17    14   8    6.14   365.2   13.0      37.653
2013    6       17    14  14    6.15   365.4   13.0      37.703
2013    6       17    14  21    6.15   365.5   13.1      37.753
2013    6       17    14  27    6.16   365.7   13.1      37.802
2013    6       17    14  33    6.17   365.9   13.1      37.850
2013    6       17    14  40    6.18   366.1   13.1      37.897
2013    6       17    14  46    6.18   366.3   13.1      37.944
2013    6       17    14  52    6.19   366.4   13.1      37.990
2013    6       17    14  58    6.20   366.6   13.1      38.036
2013    6       17    15   5    6.20   366.8   13.1      38.081
2013    6       17    15  11    6.21   367.0   13.1      38.125
2013    6       17    15  17    6.22   367.1   13.1      38.168
2013    6       17    15  24    6.22   367.3   13.1      38.212
2013    6       17    15  30    6.23   367.5   13.1      38.254
2013    6       17    15  36    6.24   367.7   13.1      38.297
2013    6       17    15  42    6.24   367.9   13.1      38.339
2013    6       17    15  49    6.25   368.1   13.1      38.380
2013    6       17    15  55    6.26   368.2   13.1      38.421
2013    6       17    16   1    6.27   368.4   13.1      38.462
2013    6       17    16   7    6.27   368.6   13.1      38.503
2013    6       17    16  14    6.28   368.8   13.1      38.543
2013    6       17    16  20    6.29   369.0   13.1      38.583
2013    6       17    16  26    6.29   369.1   13.1      38.623
2013    6       17    16  33    6.30   369.3   13.1      38.663
2013    6       17    16  39    6.31   369.5   13.1      38.702
2013    6       17    16  45    6.31   369.7   13.1      38.742
2013    6       17    16  52    6.32   369.9   13.1      38.782
2013    6       17    16  58    6.33   370.0   13.1      38.821
2013    6       17    17   4    6.33   370.2   13.1      38.861
2013    6       17    17  10    6.34   370.4   13.1      38.902
2013    6       17    17  17    6.35   370.6   13.1      38.942
2013    6       17    17  23    6.35   370.8   13.1      38.984
2013    6       17    17  29    6.36   370.9   13.1      39.026
2013    6       17    17  35    6.37   371.1   13.1      39.068
2013    6       17    17  42    6.37   371.3   13.1      39.111
2013    6       17    17  48    6.38   371.5   13.1      39.155
2013    6       17    17  54    6.39   371.7   13.1      39.202
2013    6       17    18   1    6.40   371.9   13.1      39.252
2013    6       17    18   7    6.41   372.1   13.2      39.303
2013    6       17    18  13    6.42   372.3   13.2      39.358
2013    6       17    18  19    6.42   372.5   13.2      39.416
2013    6       17    18  26    6.43   372.7   13.2      39.476
2013    6       17    18  32    6.44   372.9   13.2      39.540
2013    6       17    18  38    6.45   373.1   13.2      39.605
2013    6       17    18  45    6.46   373.3   13.2      39.672
2013    6       17    18  51    6.47   373.5   13.3      39.743
2013    6       17    18  57    6.48   373.8   13.3      39.820
2013    6       17    19   3    6.49   374.0   13.3      39.901
2013    6       17    19  10    6.50   374.2   13.3      39.988
2013    6       17    19  16    6.51   374.5   13.3      40.077
2013    6       17    19  22    6.52   374.8   13.4      40.170
2013    6       17    19  28    6.53   375.0   13.4      40.264
2013    6       17    19  35    6.54   375.3   13.4      40.360
2013    6       17    19  41    6.55   375.6   13.4      40.456
2013    6       17    19  47    6.56   375.9   13.4      40.552
2013    6       17    19  54    6.57   376.1   13.4      40.648
2013    6       17    20   0    6.58   376.4   13.5      40.744
2013    6       17    20   6    6.58   376.7   13.5      40.839
2013    6       17    20  12    6.59   377.0   13.5      40.934
2013    6       17    20  19    6.60   377.3   13.5      41.026
2013    6       17    20  25    6.61   377.6   13.5      41.116
2013    6       17    20  31    6.61   377.9   13.5      41.202
2013    6       17    20  37    6.62   378.2   13.5      41.284
2013    6       17    20  44    6.63   378.5   13.5      41.363
2013    6       17    20  50    6.63   378.8   13.5      41.438
2013    6       17    20  56    6.64   379.1   13.5      41.510
2013    6       17    21   3    6.64   379.4   13.5      41.579
2013    6       17    21   9    6.65   379.7   13.5      41.645
2013    6       17    21  15    6.65   379.9   13.5      41.708
2013    6       17    21  21    6.66   380.2   13.5      41.768
2013    6       17    21  28    6.66   380.5   13.5      41.826
2013    6       17    21  34    6.67   380.8   13.4      41.882
2013    6       17    21  40    6.67   381.0   13.4      41.936
2013    6       17    21  47    6.67   381.3   13.4      41.987
2013    6       17    21  53    6.68   381.6   13.4      42.037
2013    6       17    21  59    6.68   381.8   13.4      42.085
2013    6       17    22   5    6.68   382.1   13.4      42.133
2013    6       17    22  12    6.69   382.3   13.4      42.178
2013    6       17    22  18    6.69   382.6   13.4      42.223
2013    6       17    22  24    6.69   382.8   13.3      42.267
2013    6       17    22  30    6.70   383.1   13.3      42.310
2013    6       17    22  37    6.70   383.4   13.3      42.353
2013    6       17    22  43    6.71   383.6   13.3      42.395
2013    6       17    22  49    6.71   383.9   13.3      42.437
2013    6       17    22  56    6.71   384.1   13.3      42.478
2013    6       17    23   2    6.72   384.4   13.3      42.520
2013    6       17    23   8    6.72   384.6   13.2      42.561
2013    6       17    23  14    6.72   384.9   13.2      42.602
2013    6       17    23  21    6.73   385.1   13.2      42.643
2013    6       17    23  27    6.73   385.4   13.2      42.683
2013    6       17    23  33    6.73   385.6   13.2      42.724
2013    6       17    23  40    6.74   385.9   13.2      42.765
2013    6       17    23  46    6.74   386.1   13.1      42.806
2013    6       17    23  52    6.74   386.4   13.1      42.847
2013    6       17    23  58    6.75   386.6   13.1      42.888
2013    6       18     0   5    6.75   386.9   13.1      42.929
2013    6       18     0  11    6.75   387.2   13.1      42.970
2013    6       18     0  17    6.76   387.4   13.1      43.011
2013    6       18     0  24    6.76   387.7   13.0      43.053
2013    6       18     0  30    6.76   387.9   13.0      43.095
2013    6       18     0  36    6.77   388.2   13.0      43.137
2013    6       18     0  42    6.77   388.4   13.0      43.179
2013    6       18     0  49    6.77   388.7   13.0      43.222
2013    6       18     0  55    6.78   389.0   13.0      43.265
2013    6       18     1   1    6.78   389.2   13.0      43.309
2013    6       18     1   7    6.78   389.5   12.9      43.354
2013    6       18     1  14    6.79   389.7   12.9      43.399
2013    6       18     1  20    6.79   390.0   12.9      43.444
2013    6       18     1  26    6.79   390.3   12.9      43.491
2013    6       18     1  33    6.80   390.5   12.9      43.539
2013    6       18     1  39    6.80   390.8   12.9      43.589
2013    6       18     1  45    6.80   391.1   12.9      43.640
2013    6       18     1  51    6.81   391.3   12.9      43.691
2013    6       18     1  58    6.81   391.6   12.9      43.742
2013    6       18     2   4    6.82   391.8   12.9      43.797
2013    6       18     2  10    6.82   392.1   12.9      43.855
2013    6       18     2  16    6.83   392.4   12.9      43.918
2013    6       18     2  23    6.83   392.7   12.9      43.984
2013    6       18     2  29    6.83   392.9   12.9      44.054
2013    6       18     2  35    6.84   393.2   12.9      44.127
2013    6       18     2  42    6.84   393.5   12.9      44.203
2013    6       18     2  48    6.85   393.8   12.9      44.281
2013    6       18     2  54    6.85   394.2   12.9      44.362
2013    6       18     3   0    6.86   394.5   12.8      44.443
2013    6       18     3   7    6.86   394.8   12.8      44.526
2013    6       18     3  13    6.86   395.1   12.8      44.608
2013    6       18     3  19    6.87   395.5   12.8      44.692
2013    6       18     3  25    6.87   395.8   12.8      44.776
2013    6       18     3  32    6.87   396.1   12.8      44.861
2013    6       18     3  38    6.88   396.5   12.8      44.942
2013    6       18     3  44    6.88   396.8   12.8      45.021
2013    6       18     3  51    6.88   397.2   12.8      45.097
2013    6       18     3  57    6.88   397.5   12.8      45.171
2013    6       18     4   3    6.88   397.9   12.8      45.241
2013    6       18     4   9    6.88   398.2   12.8      45.309
2013    6       18     4  16    6.88   398.6   12.7      45.374
2013    6       18     4  22    6.89   398.9   12.7      45.437
2013    6       18     4  28    6.89   399.3   12.7      45.496
2013    6       18     4  35    6.89   399.6   12.7      45.553
2013    6       18     4  41    6.89   400.0   12.7      45.608
2013    6       18     4  47    6.89   400.3   12.7      45.661
2013    6       18     4  53    6.89   400.7   12.6      45.712
2013    6       18     5   0    6.89   401.0   12.6      45.761
2013    6       18     5   6    6.88   401.4   12.6      45.808
2013    6       18     5  12    6.88   401.7   12.6      45.854
2013    6       18     5  18    6.88   402.1   12.5      45.900
2013    6       18     5  25    6.88   402.4   12.5      45.944
2013    6       18     5  31    6.88   402.7   12.5      45.988
2013    6       18     5  37    6.88   403.1   12.5      46.032
2013    6       18     5  44    6.88   403.4   12.4      46.075
2013    6       18     5  50    6.88   403.8   12.4      46.117
2013    6       18     5  56    6.88   404.1   12.4      46.159
2013    6       18     6   2    6.88   404.5   12.4      46.202
2013    6       18     6   9    6.88   404.8   12.3      46.243
2013    6       18     6  15    6.87   405.1   12.3      46.285
2013    6       18     6  21    6.87   405.5   12.3      46.326
2013    6       18     6  28    6.87   405.8   12.3      46.367
2013    6       18     6  34    6.87   406.2   12.2      46.408
2013    6       18     6  40    6.87   406.5   12.2      46.447
2013    6       18     6  46    6.86   406.9   12.2      46.486
2013    6       18     6  53    6.86   407.2   12.1      46.524
2013    6       18     6  59    6.86   407.5   12.1      46.561
2013    6       18     7   5    6.86   407.9   12.1      46.596
2013    6       18     7  11    6.85   408.2   12.0      46.630
2013    6       18     7  18    6.85   408.6   12.0      46.663
2013    6       18     7  24    6.85   408.9   12.0      46.693
2013    6       18     7  30    6.84   409.2   11.9      46.723
2013    6       18     7  37    6.84   409.6   11.9      46.750
2013    6       18     7  43    6.83   409.9   11.9      46.776
2013    6       18     7  49    6.83   410.3   11.8      46.798
2013    6       18     7  55    6.82   410.6   11.8      46.816
2013    6       18     8   2    6.82   410.9   11.7      46.831
2013    6       18     8   8    6.81   411.3   11.7      46.843
2013    6       18     8  14    6.81   411.6   11.6      46.852
2013    6       18     8  21    6.80   411.9   11.6      46.858
2013    6       18     8  27    6.80   412.2   11.6      46.861
2013    6       18     8  33    6.79   412.5   11.5      46.862
2013    6       18     8  39    6.78   412.9   11.5      46.861
2013    6       18     8  46    6.78   413.2   11.4      46.858
2013    6       18     8  52    6.77   413.5   11.4      46.854
2013    6       18     8  58    6.76   413.8   11.3      46.849
2013    6       18     9   4    6.75   414.1   11.3      46.841
2013    6       18     9  11    6.75   414.4   11.2      46.833
2013    6       18     9  17    6.74   414.7   11.2      46.824
2013    6       18     9  23    6.73   415.0   11.2      46.817
2013    6       18     9  29    6.73   415.3   11.1      46.811
2013    6       18     9  36    6.72   415.6   11.1      46.806
2013    6       18     9  42    6.71   415.9   11.0      46.802
2013    6       18     9  48    6.70   416.2   11.0      46.798
2013    6       18     9  55    6.70   416.5   11.0      46.796
2013    6       18    10   1    6.69   416.8   10.9      46.794
2013    6       18    10   7    6.68   417.1   10.9      46.793
2013    6       18    10  13    6.68   417.5   10.9      46.794
2013    6       18    10  20    6.67   417.8   10.8      46.795
2013    6       18    10  26    6.66   418.1   10.8      46.797
2013    6       18    10  32    6.65   418.4   10.7      46.800
2013    6       18    10  39    6.65   418.7   10.7      46.803
2013    6       18    10  45    6.64   419.0   10.7      46.807
2013    6       18    10  51    6.63   419.3   10.6      46.811
2013    6       18    10  57    6.62   419.6   10.6      46.816
2013    6       18    11   4    6.62   419.9   10.6      46.820
2013    6       18    11  10    6.61   420.2   10.6      46.824
2013    6       18    11  16    6.60   420.5   10.5      46.828
2013    6       18    11  22    6.59   420.8   10.5      46.832
2013    6       18    11  29    6.59   421.1   10.5      46.835
2013    6       18    11  35    6.58   421.4   10.4      46.837
2013    6       18    11  41    6.57   421.7   10.4      46.839
2013    6       18    11  47    6.56   422.0   10.4      46.839
2013    6       18    11  54    6.55   422.3   10.3      46.839
2013    6       18    12   0    6.55   422.6   10.3      46.838
2013    6       18    12   6    6.54   422.9   10.3      46.836
2013    6       18    12  13    6.53   423.2   10.2      46.833
2013    6       18    12  19    6.52   423.6   10.2      46.830
2013    6       18    12  25    6.51   423.9   10.2      46.826
2013    6       18    12  31    6.50   424.2   10.2      46.821
2013    6       18    12  38    6.50   424.5   10.1      46.816
2013    6       18    12  44    6.49   424.8   10.1      46.810
2013    6       18    12  50    6.48   425.1   10.1      46.804
2013    6       18    12  57    6.47   425.4   10.0      46.798
2013    6       18    13   3    6.46   425.7   10.0      46.792
2013    6       18    13   9    6.45   426.0   10.0      46.784
2013    6       18    13  15    6.44   426.3    9.9      46.777
2013    6       18    13  22    6.43   426.7    9.9      46.769
2013    6       18    13  28    6.42   427.0    9.9      46.761
2013    6       18    13  34    6.41   427.3    9.8      46.752
2013    6       18    13  40    6.40   427.6    9.8      46.743
2013    6       18    13  47    6.39   427.9    9.8      46.733
2013    6       18    13  53    6.38   428.2    9.8      46.722
2013    6       18    13  59    6.37   428.5    9.7      46.710
2013    6       18    14   6    6.36   428.8    9.7      46.696
2013    6       18    14  12    6.35   429.1    9.7      46.681
2013    6       18    14  18    6.34   429.3    9.6      46.665
2013    6       18    14  24    6.33   429.6    9.6      46.647
2013    6       18    14  31    6.32   429.9    9.5      46.627
2013    6       18    14  37    6.31   430.2    9.5      46.604
2013    6       18    14  43    6.30   430.5    9.5      46.580
2013    6       18    14  50    6.28   430.8    9.4      46.554
2013    6       18    14  56    6.27   431.1    9.4      46.526
2013    6       18    15   2    6.26   431.3    9.4      46.493
2013    6       18    15   8    6.25   431.6    9.3      46.456
2013    6       18    15  15    6.24   431.9    9.3      46.415
2013    6       18    15  21    6.23   432.1    9.2      46.370
2013    6       18    15  27    6.21   432.4    9.2      46.321
2013    6       18    15  33    6.20   432.6    9.2      46.269
2013    6       18    15  40    6.19   432.9    9.1      46.213
2013    6       18    15  46    6.18   433.1    9.1      46.154
2013    6       18    15  52    6.16   433.3    9.0      46.092
2013    6       18    15  59    6.15   433.6    9.0      46.028
2013    6       18    16   5    6.14   433.8    9.0      45.962
2013    6       18    16  11    6.13   434.0    8.9      45.895
2013    6       18    16  17    6.11   434.2    8.9      45.825
2013    6       18    16  24    6.10   434.5    8.8      45.754
2013    6       18    16  30    6.09   434.7    8.8      45.682
2013    6       18    16  36    6.08   434.9    8.8      45.612
2013    6       18    16  42    6.07   435.1    8.7      45.543
2013    6       18    16  49    6.05   435.4    8.7      45.476
2013    6       18    16  55    6.04   435.6    8.7      45.410
2013    6       18    17   1    6.03   435.8    8.6      45.346
2013    6       18    17   8    6.02   436.0    8.6      45.281
2013    6       18    17  14    6.01   436.2    8.6      45.219
2013    6       18    17  20    5.99   436.5    8.5      45.157
2013    6       18    17  26    5.98   436.7    8.5      45.097
2013    6       18    17  33    5.97   436.9    8.5      45.038
2013    6       18    17  39    5.96   437.1    8.5      44.981
2013    6       18    17  45    5.95   437.3    8.4      44.924
2013    6       18    17  51    5.94   437.5    8.4      44.869
2013    6       18    17  58    5.93   437.7    8.4      44.813
2013    6       18    18   4    5.91   437.9    8.3      44.759
2013    6       18    18  10    5.90   438.1    8.3      44.705
2013    6       18    18  16    5.89   438.3    8.3      44.651
2013    6       18    18  23    5.88   438.5    8.3      44.598
2013    6       18    18  29    5.87   438.7    8.2      44.545
2013    6       18    18  35    5.86   438.9    8.2      44.493
2013    6       18    18  42    5.85   439.0    8.2      44.441
2013    6       18    18  48    5.84   439.2    8.2      44.388
2013    6       18    18  54    5.83   439.4    8.1      44.337
2013    6       18    19   0    5.81   439.6    8.1      44.285
2013    6       18    19   7    5.80   439.8    8.1      44.233
2013    6       18    19  13    5.79   439.9    8.1      44.182
2013    6       18    19  19    5.78   440.1    8.1      44.130
2013    6       18    19  25    5.77   440.3    8.0      44.079
2013    6       18    19  32    5.76   440.4    8.0      44.027
2013    6       18    19  38    5.75   440.6    8.0      43.975
2013    6       18    19  44    5.74   440.8    8.0      43.924
2013    6       18    19  51    5.73   440.9    7.9      43.871
2013    6       18    19  57    5.72   441.1    7.9      43.819
2013    6       18    20   3    5.71   441.2    7.9      43.766
2013    6       18    20   9    5.69   441.4    7.9      43.713
2013    6       18    20  16    5.68   441.6    7.8      43.660
2013    6       18    20  22    5.67   441.7    7.8      43.606
2013    6       18    20  28    5.66   441.9    7.8      43.553
2013    6       18    20  35    5.65   442.0    7.8      43.499
2013    6       18    20  41    5.64   442.2    7.8      43.445
2013    6       18    20  47    5.63   442.4    7.7      43.391
2013    6       18    20  53    5.62   442.5    7.7      43.336
2013    6       18    21   0    5.61   442.7    7.7      43.281
2013    6       18    21   6    5.60   442.8    7.7      43.226
2013    6       18    21  12    5.59   442.9    7.7      43.171
2013    6       18    21  18    5.58   443.1    7.6      43.116
2013    6       18    21  25    5.57   443.2    7.6      43.061
2013    6       18    21  31    5.56   443.3    7.6      43.006
2013    6       18    21  37    5.55   443.4    7.6      42.952
2013    6       18    21  44    5.54   443.6    7.6      42.898
2013    6       18    21  50    5.53   443.7    7.5      42.845
2013    6       18    21  56    5.52   443.8    7.5      42.793
2013    6       18    22   2    5.51   443.9    7.5      42.741
2013    6       18    22   9    5.50   444.0    7.5      42.690
2013    6       18    22  15    5.49   444.1    7.5      42.641
2013    6       18    22  21    5.48   444.2    7.5      42.593
2013    6       18    22  27    5.47   444.2    7.4      42.547
2013    6       18    22  34    5.46   444.3    7.4      42.501
2013    6       18    22  40    5.45   444.4    7.4      42.457
2013    6       18    22  46    5.44   444.5    7.4      42.413
2013    6       18    22  53    5.43   444.5    7.4      42.371
2013    6       18    22  59    5.42   444.6    7.4      42.330
2013    6       18    23   5    5.42   444.7    7.4      42.289
2013    6       18    23  11    5.41   444.8    7.3      42.248
2013    6       18    23  18    5.40   444.8    7.3      42.208
2013    6       18    23  24    5.39   444.9    7.3      42.168
2013    6       18    23  30    5.38   445.0    7.3      42.130
2013    6       18    23  36    5.38   445.1    7.3      42.091
2013    6       18    23  43    5.37   445.2    7.3      42.053
2013    6       18    23  49    5.36   445.3    7.3      42.015
2013    6       18    23  55    5.35   445.4    7.3      41.977
2013    6       19     0   2    5.35   445.5    7.2      41.939
2013    6       19     0   8    5.34   445.6    7.2      41.902
2013    6       19     0  14    5.33   445.7    7.2      41.864
2013    6       19     0  20    5.32   445.8    7.2      41.826
2013    6       19     0  27    5.32   445.9    7.2      41.788
2013    6       19     0  33    5.31   446.0    7.2      41.750
2013    6       19     0  39    5.30   446.1    7.2      41.711
2013    6       19     0  45    5.30   446.3    7.2      41.674
2013    6       19     0  52    5.29   446.4    7.2      41.636
2013    6       19     0  58    5.28   446.5    7.1      41.598
2013    6       19     1   4    5.27   446.6    7.1      41.559
2013    6       19     1  10    5.27   446.6    7.1      41.521
2013    6       19     1  17    5.26   446.7    7.1      41.482
2013    6       19     1  23    5.25   446.8    7.1      41.443
2013    6       19     1  29    5.25   446.9    7.1      41.404
2013    6       19     1  36    5.24   447.0    7.1      41.366
2013    6       19     1  42    5.23   447.1    7.1      41.327
2013    6       19     1  48    5.23   447.2    7.1      41.288
2013    6       19     1  54    5.22   447.3    7.0      41.249
2013    6       19     2   1    5.21   447.4    7.0      41.211
2013    6       19     2   7    5.21   447.5    7.0      41.174
2013    6       19     2  13    5.20   447.6    7.0      41.136
2013    6       19     2  19    5.19   447.6    7.0      41.099
2013    6       19     2  26    5.19   447.7    7.0      41.063
2013    6       19     2  32    5.18   447.8    7.0      41.027
2013    6       19     2  38    5.17   447.9    7.0      40.992
2013    6       19     2  45    5.17   448.0    7.0      40.957
2013    6       19     2  51    5.16   448.0    7.0      40.923
2013    6       19     2  57    5.16   448.1    6.9      40.889
2013    6       19     3   3    5.15   448.2    6.9      40.855
2013    6       19     3  10    5.14   448.3    6.9      40.821
2013    6       19     3  16    5.14   448.3    6.9      40.788
2013    6       19     3  22    5.13   448.4    6.9      40.755
2013    6       19     3  28    5.13   448.5    6.9      40.722
2013    6       19     3  35    5.12   448.6    6.9      40.689
2013    6       19     3  41    5.11   448.7    6.9      40.656
2013    6       19     3  47    5.11   448.7    6.9      40.624
2013    6       19     3  54    5.10   448.8    6.9      40.591
2013    6       19     4   0    5.10   448.9    6.8      40.558
2013    6       19     4   6    5.09   449.0    6.8      40.524
2013    6       19     4  12    5.09   449.1    6.8      40.490
2013    6       19     4  19    5.08   449.2    6.8      40.456
2013    6       19     4  25    5.08   449.3    6.8      40.422
2013    6       19     4  31    5.07   449.4    6.8      40.387
2013    6       19     4  38    5.07   449.4    6.8      40.352
2013    6       19     4  44    5.06   449.5    6.8      40.317
2013    6       19     4  50    5.05   449.6    6.8      40.282
2013    6       19     4  56    5.05   449.7    6.8      40.247
2013    6       19     5   3    5.04   449.8    6.7      40.211
2013    6       19     5   9    5.04   449.8    6.7      40.176
2013    6       19     5  15    5.03   449.9    6.7      40.141
2013    6       19     5  21    5.03   450.0    6.7      40.106
2013    6       19     5  28    5.02   450.0    6.7      40.071
2013    6       19     5  34    5.02   450.1    6.7      40.037
2013    6       19     5  40    5.01   450.2    6.7      40.003
2013    6       19     5  47    5.01   450.2    6.7      39.970
2013    6       19     5  53    5.01   450.3    6.7      39.936
2013    6       19     5  59    5.00   450.4    6.7      39.904
2013    6       19     6   5    5.00   450.4    6.7      39.871
2013    6       19     6  12    4.99   450.5    6.6      39.839
2013    6       19     6  18    4.99   450.5    6.6      39.806
2013    6       19     6  24    4.98   450.6    6.6      39.774
2013    6       19     6  30    4.98   450.7    6.6      39.742
2013    6       19     6  37    4.97   450.7    6.6      39.710
2013    6       19     6  43    4.97   450.8    6.6      39.679
2013    6       19     6  49    4.97   450.8    6.6      39.647
2013    6       19     6  55    4.96   450.9    6.6      39.615
2013    6       19     7   2    4.96   451.0    6.6      39.584
2013    6       19     7   8    4.95   451.0    6.6      39.552
2013    6       19     7  14    4.95   451.1    6.6      39.521
2013    6       19     7  20    4.95   451.1    6.6      39.490
2013    6       19     7  27    4.94   451.2    6.5      39.459
2013    6       19     7  33    4.94   451.2    6.5      39.428
2013    6       19     7  39    4.93   451.3    6.5      39.397
2013    6       19     7  46    4.93   451.3    6.5      39.367
2013    6       19     7  52    4.93   451.4    6.5      39.336
2013    6       19     7  58    4.92   451.4    6.5      39.307
2013    6       19     8   4    4.92   451.5    6.5      39.277
2013    6       19     8  11    4.92   451.5    6.5      39.248
2013    6       19     8  17    4.91   451.6    6.5      39.219
2013    6       19     8  23    4.91   451.6    6.5      39.191
2013    6       19     8  29    4.91   451.7    6.5      39.163
2013    6       19     8  36    4.90   451.7    6.5      39.136
2013    6       19     8  42    4.90   451.7    6.5      39.109
2013    6       19     8  48    4.90   451.8    6.5      39.082
2013    6       19     8  54    4.89   451.8    6.5      39.055
2013    6       19     9   1    4.89   451.8    6.4      39.029
2013    6       19     9   7    4.89   451.9    6.4      39.004
2013    6       19     9  13    4.88   451.9    6.4      38.978
2013    6       19     9  20    4.88   452.0    6.4      38.953
2013    6       19     9  26    4.88   452.0    6.4      38.929
2013    6       19     9  32    4.87   452.0    6.4      38.904
2013    6       19     9  38    4.87   452.1    6.4      38.880
2013    6       19     9  45    4.87   452.1    6.4      38.856
2013    6       19     9  51    4.86   452.1    6.4      38.832
2013    6       19     9  57    4.86   452.2    6.4      38.808
2013    6       19    10   3    4.86   452.2    6.4      38.785
2013    6       19    10  10    4.85   452.2    6.4      38.761
2013    6       19    10  16    4.85   452.3    6.4      38.738
2013    6       19    10  22    4.85   452.3    6.4      38.715
2013    6       19    10  29    4.85   452.3    6.4      38.692
2013    6       19    10  35    4.84   452.4    6.4      38.669
2013    6       19    10  41    4.84   452.4    6.4      38.646
2013    6       19    10  47    4.84   452.4    6.4      38.624
2013    6       19    10  54    4.83   452.5    6.4      38.601
2013    6       19    11   0    4.83   452.5    6.3      38.579
2013    6       19    11   6    4.83   452.5    6.3      38.556
2013    6       19    11  12    4.83   452.5    6.3      38.534
2013    6       19    11  19    4.82   452.6    6.3      38.512
2013    6       19    11  25    4.82   452.6    6.3      38.491
2013    6       19    11  31    4.82   452.6    6.3      38.469
2013    6       19    11  38    4.81   452.7    6.3      38.448
2013    6       19    11  44    4.81   452.7    6.3      38.426
2013    6       19    11  50    4.81   452.7    6.3      38.405
2013    6       19    11  56    4.81   452.7    6.3      38.384
2013    6       19    12   3    4.80   452.8    6.3      38.363
2013    6       19    12   9    4.80   452.8    6.3      38.343
2013    6       19    12  15    4.80   452.8    6.3      38.322
2013    6       19    12  22    4.80   452.8    6.3      38.302
2013    6       19    12  28    4.79   452.9    6.3      38.282
2013    6       19    12  34    4.79   452.9    6.3      38.262
2013    6       19    12  40    4.79   452.9    6.3      38.242
2013    6       19    12  47    4.79   452.9    6.3      38.222
2013    6       19    12  53    4.78   452.9    6.3      38.203
2013    6       19    12  59    4.78   453.0    6.3      38.184
2013    6       19    13   5    4.78   453.0    6.3      38.164
2013    6       19    13  12    4.78   453.0    6.3      38.145
2013    6       19    13  18    4.78   453.0    6.2      38.126
2013    6       19    13  24    4.77   453.0    6.2      38.107
2013    6       19    13  30    4.77   453.1    6.2      38.089
2013    6       19    13  37    4.77   453.1    6.2      38.070
2013    6       19    13  43    4.77   453.1    6.2      38.051
2013    6       19    13  49    4.77   453.1    6.2      38.033
2013    6       19    13  56    4.76   453.1    6.2      38.014
2013    6       19    14   2    4.76   453.1    6.2      37.996
2013    6       19    14   8    4.76   453.1    6.2      37.978
2013    6       19    14  14    4.76   453.2    6.2      37.960
2013    6       19    14  21    4.76   453.2    6.2      37.942
2013    6       19    14  27    4.75   453.2    6.2      37.923
2013    6       19    14  33    4.75   453.2    6.2      37.905
2013    6       19    14  39    4.75   453.2    6.2      37.887
2013    6       19    14  46    4.75   453.2    6.2      37.869
2013    6       19    14  52    4.75   453.2    6.2      37.851
2013    6       19    14  58    4.75   453.3    6.2      37.834
2013    6       19    15   4    4.74   453.3    6.2      37.816
2013    6       19    15  11    4.74   453.3    6.2      37.798
2013    6       19    15  17    4.74   453.3    6.2      37.780
2013    6       19    15  23    4.74   453.3    6.2      37.762
2013    6       19    15  29    4.74   453.3    6.2      37.745
2013    6       19    15  36    4.74   453.3    6.2      37.727
2013    6       19    15  42    4.74   453.3    6.2      37.709
2013    6       19    15  48    4.73   453.3    6.2      37.692
2013    6       19    15  55    4.73   453.4    6.2      37.674
2013    6       19    16   1    4.73   453.4    6.1      37.657
2013    6       19    16   7    4.73   453.4    6.1      37.639
2013    6       19    16  13    4.73   453.4    6.1      37.622
2013    6       19    16  20    4.73   453.4    6.1      37.605
2013    6       19    16  26    4.73   453.4    6.1      37.588
2013    6       19    16  32    4.72   453.4    6.1      37.571
2013    6       19    16  38    4.72   453.4    6.1      37.555
2013    6       19    16  45    4.72   453.4    6.1      37.538
2013    6       19    16  51    4.72   453.4    6.1      37.522
2013    6       19    16  57    4.72   453.4    6.1      37.506
2013    6       19    17   3    4.72   453.5    6.1      37.490
2013    6       19    17  10    4.72   453.5    6.1      37.474
2013    6       19    17  16    4.72   453.5    6.1      37.458
2013    6       19    17  22    4.71   453.5    6.1      37.443
2013    6       19    17  29    4.71   453.5    6.1      37.428
2013    6       19    17  35    4.71   453.5    6.1      37.413
2013    6       19    17  41    4.71   453.5    6.1      37.398
2013    6       19    17  47    4.71   453.5    6.1      37.384
2013    6       19    17  54    4.71   453.5    6.1      37.369
2013    6       19    18   0    4.71   453.5    6.1      37.355
2013    6       19    18   6    4.71   453.5    6.1      37.342
2013    6       19    18  12    4.71   453.5    6.1      37.328
2013    6       19    18  19    4.70   453.5    6.1      37.315
2013    6       19    18  25    4.70   453.5    6.1      37.301
2013    6       19    18  31    4.70   453.5    6.1      37.289
2013    6       19    18  38    4.70   453.5    6.1      37.276
2013    6       19    18  44    4.70   453.5    6.1      37.263
2013    6       19    18  50    4.70   453.5    6.1      37.251
2013    6       19    18  56    4.70   453.6    6.1      37.239
2013    6       19    19   3    4.70   453.6    6.1      37.227
2013    6       19    19   9    4.70   453.6    6.1      37.215
2013    6       19    19  15    4.70   453.6    6.1      37.203
2013    6       19    19  22    4.69   453.6    6.1      37.192
2013    6       19    19  28    4.69   453.6    6.1      37.180
2013    6       19    19  34    4.69   453.6    6.1      37.169
2013    6       19    19  40    4.69   453.6    6.1      37.158
2013    6       19    19  47    4.69   453.6    6.1      37.147
2013    6       19    19  53    4.69   453.6    6.1      37.136
2013    6       19    19  59    4.69   453.6    6.1      37.125
2013    6       19    20   5    4.69   453.6    6.1      37.114
2013    6       19    20  12    4.69   453.6    6.1      37.103
2013    6       19    20  18    4.69   453.6    6.1      37.092
2013    6       19    20  24    4.69   453.6    6.1      37.082
2013    6       19    20  30    4.69   453.6    6.1      37.071
2013    6       19    20  37    4.68   453.6    6.1      37.060
2013    6       19    20  43    4.68   453.6    6.1      37.050
2013    6       19    20  49    4.68   453.6    6.1      37.039
2013    6       19    20  56    4.68   453.5    6.1      37.029
2013    6       19    21   2    4.68   453.5    6.1      37.018
2013    6       19    21   8    4.68   453.5    6.1      37.008
2013    6       19    21  14    4.68   453.5    6.0      36.997
2013    6       19    21  21    4.68   453.5    6.0      36.987
2013    6       19    21  27    4.68   453.5    6.0      36.976
2013    6       19    21  33    4.68   453.5    6.0      36.966
2013    6       19    21  39    4.68   453.5    6.0      36.955
2013    6       19    21  46    4.68   453.5    6.0      36.945
2013    6       19    21  52    4.68   453.5    6.0      36.935
2013    6       19    21  58    4.68   453.5    6.0      36.924
2013    6       19    22   4    4.68   453.5    6.0      36.914
2013    6       19    22  11    4.68   453.5    6.0      36.904
2013    6       19    22  17    4.68   453.5    6.0      36.894
2013    6       19    22  23    4.68   453.5    6.0      36.884
2013    6       19    22  29    4.68   453.5    6.0      36.874
2013    6       19    22  36    4.68   453.5    6.0      36.864
2013    6       19    22  42    4.68   453.5    6.0      36.854
2013    6       19    22  48    4.67   453.5    6.0      36.844
2013    6       19    22  54    4.67   453.5    6.0      36.834
2013    6       19    23   1    4.67   453.5    6.0      36.824
2013    6       19    23   7    4.67   453.5    6.0      36.815
2013    6       19    23  13    4.67   453.5    6.0      36.805
2013    6       19    23  19    4.67   453.4    6.0      36.796
2013    6       19    23  26    4.67   453.4    6.0      36.787
2013    6       19    23  32    4.67   453.4    6.0      36.777
2013    6       19    23  38    4.67   453.4    6.0      36.768
2013    6       19    23  45    4.67   453.4    6.0      36.759
2013    6       19    23  51    4.67   453.4    6.0      36.750
2013    6       19    23  57    4.67   453.4    6.0      36.741
2013    6       20     0   3    4.67   453.4    6.0      36.733
2013    6       20     0  10    4.67   453.4    6.0      36.724
2013    6       20     0  16    4.67   453.4    6.0      36.715
2013    6       20     0  22    4.67   453.4    6.0      36.707
2013    6       20     0  28    4.67   453.4    6.0      36.698
2013    6       20     0  35    4.67   453.4    6.0      36.690
2013    6       20     0  41    4.67   453.4    6.0      36.682
2013    6       20     0  47    4.67   453.4    6.0      36.674
2013    6       20     0  54    4.67   453.4    6.0      36.666
2013    6       20     1   0    4.67   453.4    6.0      36.658
2013    6       20     1   6    4.67   453.4    6.0      36.650
2013    6       20     1  12    4.67   453.4    6.0      36.642
2013    6       20     1  19    4.67   453.4    6.0      36.634
2013    6       20     1  25    4.67   453.3    6.0      36.627
2013    6       20     1  31    4.67   453.3    6.0      36.619
2013    6       20     1  37    4.67   453.3    6.0      36.612
2013    6       20     1  44    4.67   453.3    6.0      36.604
2013    6       20     1  50    4.67   453.3    6.0      36.597
2013    6       20     1  56    4.67   453.3    6.0      36.590
2013    6       20     2   3    4.67   453.3    6.0      36.583
2013    6       20     2   9    4.67   453.3    6.0      36.576
2013    6       20     2  15    4.67   453.3    6.0      36.569
2013    6       20     2  21    4.67   453.3    6.0      36.562
2013    6       20     2  28    4.67   453.3    6.0      36.555
2013    6       20     2  34    4.67   453.3    6.0      36.549
2013    6       20     2  40    4.67   453.3    6.0      36.542
2013    6       20     2  47    4.67   453.3    6.0      36.536
2013    6       20     2  53    4.67   453.3    6.0      36.529
2013    6       20     2  59    4.67   453.3    6.0      36.523
2013    6       20     3   5    4.67   453.3    6.0      36.517
2013    6       20     3  12    4.67   453.3    6.0      36.511
2013    6       20     3  18    4.67   453.3    6.0      36.505
2013    6       20     3  24    4.67   453.3    6.0      36.499
2013    6       20     3  30    4.67   453.2    6.0      36.494
2013    6       20     3  37    4.67   453.2    6.0      36.488
2013    6       20     3  43    4.67   453.2    6.0      36.483
2013    6       20     3  49    4.67   453.2    6.0      36.478
2013    6       20     3  55    4.67   453.2    6.0      36.473
2013    6       20     4   2    4.67   453.2    6.0      36.468
2013    6       20     4   8    4.67   453.2    6.0      36.463
2013    6       20     4  14    4.67   453.2    6.0      36.458
2013    6       20     4  20    4.67   453.2    6.0      36.454
2013    6       20     4  27    4.67   453.2    6.0      36.449
2013    6       20     4  33    4.67   453.2    6.0      36.445
2013    6       20     4  39    4.67   453.2    6.0      36.441
2013    6       20     4  45    4.67   453.2    6.0      36.437
2013    6       20     4  52    4.67   453.2    6.0      36.433
2013    6       20     4  58    4.67   453.2    6.0      36.430
2013    6       20     5   4    4.67   453.2    6.0      36.426
2013    6       20     5  10    4.67   453.2    6.0      36.423
2013    6       20     5  17    4.67   453.1    6.0      36.420
2013    6       20     5  23    4.67   453.1    6.0      36.417
2013    6       20     5  29    4.67   453.1    6.0      36.414
2013    6       20     5  36    4.67   453.1    6.0      36.411
2013    6       20     5  42    4.67   453.1    6.0      36.409
2013    6       20     5  48    4.67   453.1    6.0      36.406
2013    6       20     5  54    4.67   453.1    6.0      36.404
2013    6       20     6   1    4.67   453.1    6.0      36.402
2013    6       20     6   7    4.67   453.1    6.0      36.400
2013    6       20     6  13    4.67   453.1    6.0      36.398
2013    6       20     6  19    4.67   453.1    6.0      36.397
2013    6       20     6  26    4.67   453.1    6.0      36.395
2013    6       20     6  32    4.67   453.1    6.0      36.394
2013    6       20     6  38    4.67   453.1    6.0      36.393
2013    6       20     6  44    4.67   453.1    6.0      36.391
2013    6       20     6  51    4.67   453.1    6.0      36.390
2013    6       20     6  57    4.67   453.0    6.0      36.390
2013    6       20     7   3    4.67   453.0    6.0      36.389
2013    6       20     7   9    4.67   453.0    6.0      36.388
2013    6       20     7  16    4.67   453.0    6.0      36.388
2013    6       20     7  22    4.67   453.0    6.0      36.387
2013    6       20     7  28    4.67   453.0    6.0      36.387
2013    6       20     7  35    4.67   453.0    6.0      36.387
2013    6       20     7  41    4.68   453.0    6.0      36.386
2013    6       20     7  47    4.68   453.0    6.0      36.386
2013    6       20     7  53    4.68   453.0    6.0      36.386
2013    6       20     8   0    4.68   453.0    6.0      36.386
2013    6       20     8   6    4.68   453.0    6.0      36.385
2013    6       20     8  12    4.68   453.0    6.0      36.385
2013    6       20     8  18    4.68   453.0    6.0      36.385
2013    6       20     8  25    4.68   453.0    6.0      36.385
2013    6       20     8  31    4.68   453.0    6.0      36.384
2013    6       20     8  37    4.68   453.0    6.0      36.384
2013    6       20     8  44    4.68   453.0    6.0      36.383
2013    6       20     8  50    4.68   453.0    6.0      36.383
2013    6       20     8  56    4.68   453.0    6.0      36.382
2013    6       20     9   2    4.68   453.0    6.0      36.382
2013    6       20     9   9    4.68   453.0    6.0      36.381
2013    6       20     9  15    4.68   452.9    6.0      36.380
2013    6       20     9  21    4.68   452.9    6.0      36.379
2013    6       20     9  27    4.68   452.9    6.0      36.378
2013    6       20     9  34    4.68   452.9    6.0      36.377
2013    6       20     9  40    4.68   452.9    6.0      36.376
2013    6       20     9  46    4.68   452.9    6.0      36.375
2013    6       20     9  53    4.68   452.9    6.0      36.374
2013    6       20     9  59    4.68   452.9    6.0      36.372
2013    6       20    10   5    4.68   452.9    6.0      36.371
2013    6       20    10  11    4.68   452.9    6.0      36.369
2013    6       20    10  18    4.68   452.9    6.0      36.368
2013    6       20    10  24    4.68   452.9    6.0      36.366
2013    6       20    10  30    4.68   452.9    6.0      36.365
2013    6       20    10  36    4.68   452.9    6.0      36.364
2013    6       20    10  43    4.68   452.9    6.0      36.362
2013    6       20    10  49    4.68   452.9    6.0      36.361
2013    6       20    10  55    4.68   452.9    6.0      36.359
2013    6       20    11   1    4.68   452.9    6.0      36.358
2013    6       20    11   8    4.68   452.9    6.0      36.357
2013    6       20    11  14    4.68   452.9    6.0      36.356
2013    6       20    11  20    4.69   452.9    6.0      36.355
2013    6       20    11  27    4.69   452.9    6.0      36.354
2013    6       20    11  33    4.69   452.9    6.0      36.354
2013    6       20    11  39    4.69   452.9    6.0      36.354
2013    6       20    11  45    4.69   452.9    6.0      36.353
2013    6       20    11  52    4.69   452.9    6.0      36.353
2013    6       20    11  58    4.69   452.8    6.0      36.354
2013    6       20    12   4    4.69   452.8    6.0      36.354
2013    6       20    12  10    4.69   452.8    6.0      36.354
2013    6       20    12  17    4.69   452.8    6.0      36.355
2013    6       20    12  23    4.69   452.8    6.0      36.356
2013    6       20    12  29    4.69   452.8    6.0      36.357
2013    6       20    12  35    4.69   452.8    6.0      36.358
2013    6       20    12  42    4.69   452.8    6.0      36.358
2013    6       20    12  48    4.69   452.8    6.0      36.359
2013    6       20    12  54    4.69   452.8    6.0      36.360
2013    6       20    13   0    4.69   452.8    6.0      36.361
2013    6       20    13   7    4.69   452.8    6.0      36.362
2013    6       20    13  13    4.69   452.8    6.0      36.362
2013    6       20    13  19    4.69   452.8    6.0      36.363
2013    6       20    13  25    4.70   452.8    6.0      36.364
2013    6       20    13  32    4.70   452.8    6.0      36.364
2013    6       20    13  38    4.70   452.8    6.0      36.365
2013    6       20    13  44    4.70   452.8    6.0      36.365
2013    6       20    13  50    4.70   452.8    6.0      36.365
2013    6       20    13  57    4.70   452.8    6.0      36.365
2013    6       20    14   3    4.70   452.8    6.0      36.365
2013    6       20    14   9    4.70   452.8    6.0      36.365
2013    6       20    14  15    4.70   452.8    6.0      36.365
2013    6       20    14  22    4.70   452.8    6.0      36.364
2013    6       20    14  28    4.70   452.8    6.0      36.364
2013    6       20    14  34    4.70   452.8    6.0      36.363
2013    6       20    14  41    4.70   452.8    6.0      36.363
2013    6       20    14  47    4.70   452.8    6.0      36.362
2013    6       20    14  53    4.70   452.8    6.0      36.361
2013    6       20    14  59    4.70   452.8    6.0      36.360
2013    6       20    15   6    4.71   452.8    6.0      36.359
2013    6       20    15  12    4.71   452.8    6.0      36.358
2013    6       20    15  18    4.71   452.8    6.0      36.357
2013    6       20    15  24    4.71   452.8    6.0      36.355
2013    6       20    15  31    4.71   452.8    6.0      36.354
2013    6       20    15  37    4.71   452.8    6.0      36.353
2013    6       20    15  43    4.71   452.8    6.0      36.351
2013    6       20    15  49    4.71   452.8    6.0      36.350
2013    6       20    15  56    4.71   452.8    6.0      36.349
2013    6       20    16   2    4.71   452.8    6.0      36.348
2013    6       20    16   8    4.71   452.8    6.0      36.347
2013    6       20    16  15    4.71   452.8    6.0      36.346
2013    6       20    16  21    4.71   452.8    6.0      36.345
2013    6       20    16  27    4.71   452.8    6.0      36.344
2013    6       20    16  33    4.71   452.8    6.0      36.344
2013    6       20    16  40    4.72   452.8    6.0      36.343
2013    6       20    16  46    4.72   452.8    6.0      36.343
2013    6       20    16  52    4.72   452.8    6.0      36.343
2013    6       20    16  59    4.72   452.8    6.0      36.343
2013    6       20    17   5    4.72   452.8    6.0      36.344
2013    6       20    17  11    4.72   452.8    6.0      36.344
2013    6       20    17  17    4.72   452.8    6.0      36.345
2013    6       20    17  24    4.72   452.8    6.0      36.347
2013    6       20    17  30    4.72   452.8    6.0      36.348
2013    6       20    17  36    4.72   452.8    6.0      36.350
2013    6       20    17  42    4.72   452.8    6.0      36.352
2013    6       20    17  49    4.72   452.8    6.0      36.354
2013    6       20    17  55    4.73   452.8    6.0      36.357
2013    6       20    18   1    4.73   452.8    6.0      36.360
2013    6       20    18   7    4.73   452.8    6.0      36.363
2013    6       20    18  14    4.73   452.8    6.0      36.366
2013    6       20    18  20    4.73   452.8    6.0      36.370
2013    6       20    18  26    4.73   452.8    6.0      36.375
2013    6       20    18  32    4.73   452.8    6.0      36.379
2013    6       20    18  39    4.73   452.8    6.0      36.385
2013    6       20    18  45    4.73   452.8    6.0      36.390
2013    6       20    18  51    4.73   452.8    6.0      36.396
2013    6       20    18  57    4.74   452.8    6.0      36.402
2013    6       20    19   4    4.74   452.8    6.0      36.408
2013    6       20    19  10    4.74   452.8    6.0      36.414
2013    6       20    19  16    4.74   452.8    6.0      36.420
2013    6       20    19  22    4.74   452.8    6.0      36.426
2013    6       20    19  29    4.74   452.8    6.0      36.433
2013    6       20    19  35    4.74   452.8    6.0      36.439
2013    6       20    19  41    4.74   452.8    6.0      36.446
2013    6       20    19  47    4.74   452.8    6.0      36.452
2013    6       20    19  54    4.75   452.8    6.0      36.458
2013    6       20    20   0    4.75   452.8    6.0      36.464
2013    6       20    20   6    4.75   452.8    6.0      36.469
2013    6       20    20  12    4.75   452.8    6.0      36.475
2013    6       20    20  19    4.75   452.9    6.0      36.480
2013    6       20    20  25    4.75   452.9    6.0      36.485
2013    6       20    20  31    4.75   452.9    6.0      36.490
2013    6       20    20  38    4.75   452.9    6.0      36.495
2013    6       20    20  44    4.75   452.9    6.0      36.500
2013    6       20    20  50    4.75   452.9    6.0      36.504
2013    6       20    20  56    4.76   452.9    6.0      36.509
2013    6       20    21   3    4.76   452.9    6.0      36.513
2013    6       20    21   9    4.76   452.9    6.0      36.517
2013    6       20    21  15    4.76   452.9    6.0      36.521
2013    6       20    21  21    4.76   452.9    6.0      36.525
2013    6       20    21  28    4.76   452.9    6.0      36.529
2013    6       20    21  34    4.76   452.9    6.0      36.532
2013    6       20    21  40    4.76   453.0    6.0      36.535
2013    6       20    21  46    4.76   453.0    6.0      36.538
2013    6       20    21  53    4.76   453.0    6.0      36.541
2013    6       20    21  59    4.76   453.0    6.0      36.544
2013    6       20    22   5    4.77   453.0    6.0      36.546
2013    6       20    22  11    4.77   453.0    6.0      36.549
2013    6       20    22  18    4.77   453.0    6.0      36.551
2013    6       20    22  24    4.77   453.0    6.0      36.553
2013    6       20    22  30    4.77   453.0    6.0      36.555
2013    6       20    22  37    4.77   453.0    6.0      36.556
2013    6       20    22  43    4.77   453.0    6.0      36.558
2013    6       20    22  49    4.77   453.0    6.0      36.560
2013    6       20    22  55    4.77   453.0    6.0      36.561
2013    6       20    23   2    4.77   453.0    6.0      36.563
2013    6       20    23   8    4.78   453.0    6.0      36.564
2013    6       20    23  14    4.78   453.1    6.0      36.565
2013    6       20    23  20    4.78   453.1    6.0      36.567
2013    6       20    23  27    4.78   453.1    6.0      36.568
2013    6       20    23  33    4.78   453.1    6.0      36.569
2013    6       20    23  39    4.78   453.1    6.0      36.571
2013    6       20    23  46    4.78   453.1    6.0      36.572
2013    6       20    23  52    4.78   453.1    6.0      36.574
2013    6       20    23  58    4.78   453.1    6.0      36.576
2013    6       21     0   4    4.79   453.1    6.0      36.577
2013    6       21     0  11    4.79   453.1    6.0      36.579
2013    6       21     0  17    4.79   453.1    6.0      36.582
2013    6       21     0  23    4.79   453.1    6.0      36.584
2013    6       21     0  29    4.79   453.1    6.0      36.586
2013    6       21     0  36    4.79   453.1    6.0      36.589
2013    6       21     0  42    4.79   453.1    6.0      36.592
2013    6       21     0  48    4.79   453.2    6.0      36.595
2013    6       21     0  55    4.79   453.2    6.0      36.598
2013    6       21     1   1    4.80   453.2    6.0      36.602
2013    6       21     1   7    4.80   453.2    6.0      36.606
2013    6       21     1  13    4.80   453.2    6.0      36.610
2013    6       21     1  20    4.80   453.2    6.0      36.615
2013    6       21     1  26    4.80   453.2    6.0      36.619
2013    6       21     1  32    4.80   453.2    6.1      36.624
2013    6       21     1  38    4.80   453.2    6.1      36.630
2013    6       21     1  45    4.81   453.2    6.1      36.635
2013    6       21     1  51    4.81   453.2    6.1      36.642
2013    6       21     1  57    4.81   453.2    6.1      36.648
2013    6       21     2   3    4.81   453.3    6.1      36.655
2013    6       21     2  10    4.81   453.3    6.1      36.661
2013    6       21     2  16    4.81   453.3    6.1      36.669
2013    6       21     2  22    4.81   453.3    6.1      36.676
2013    6       21     2  28    4.82   453.3    6.1      36.684
2013    6       21     2  35    4.82   453.3    6.1      36.692
2013    6       21     2  41    4.82   453.3    6.1      36.701
2013    6       21     2  47    4.82   453.3    6.1      36.710
2013    6       21     2  53    4.82   453.4    6.1      36.720
2013    6       21     3   0    4.82   453.4    6.1      36.730
2013    6       21     3   6    4.82   453.4    6.1      36.741
2013    6       21     3  12    4.83   453.4    6.1      36.752
2013    6       21     3  18    4.83   453.4    6.1      36.763
2013    6       21     3  25    4.83   453.4    6.1      36.774
2013    6       21     3  31    4.83   453.5    6.1      36.786
2013    6       21     3  37    4.83   453.5    6.1      36.797
2013    6       21     3  43    4.83   453.5    6.1      36.809
2013    6       21     3  50    4.84   453.5    6.1      36.820
2013    6       21     3  56    4.84   453.5    6.1      36.831
2013    6       21     4   2    4.84   453.6    6.1      36.842
2013    6       21     4   8    4.84   453.6    6.1      36.853
2013    6       21     4  15    4.84   453.6    6.1      36.864
2013    6       21     4  21    4.84   453.6    6.1      36.874
2013    6       21     4  27    4.84   453.6    6.1      36.883
2013    6       21     4  33    4.85   453.7    6.1      36.893
2013    6       21     4  40    4.85   453.7    6.1      36.902
2013    6       21     4  46    4.85   453.7    6.1      36.911
2013    6       21     4  52    4.85   453.7    6.1      36.919
2013    6       21     4  58    4.85   453.7    6.1      36.927
2013    6       21     5   5    4.85   453.8    6.1      36.935
2013    6       21     5  11    4.85   453.8    6.1      36.943
2013    6       21     5  17    4.86   453.8    6.1      36.950
2013    6       21     5  23    4.86   453.8    6.1      36.957
2013    6       21     5  30    4.86   453.8    6.1      36.964
2013    6       21     5  36    4.86   453.9    6.1      36.971
2013    6       21     5  42    4.86   453.9    6.1      36.978
2013    6       21     5  49    4.86   453.9    6.1      36.984
2013    6       21     5  55    4.86   453.9    6.1      36.990
2013    6       21     6   1    4.87   453.9    6.1      36.997
2013    6       21     6   7    4.87   454.0    6.1      37.003
2013    6       21     6  14    4.87   454.0    6.1      37.009
2013    6       21     6  20    4.87   454.0    6.1      37.015
2013    6       21     6  26    4.87   454.0    6.1      37.021
2013    6       21     6  32    4.87   454.0    6.1      37.027
2013    6       21     6  39    4.87   454.1    6.1      37.032
2013    6       21     6  45    4.88   454.1    6.1      37.038
2013    6       21     6  51    4.88   454.1    6.1      37.044
2013    6       21     6  58    4.88   454.1    6.1      37.051
2013    6       21     7   4    4.88   454.2    6.1      37.057
2013    6       21     7  10    4.88   454.2    6.1      37.063
2013    6       21     7  16    4.88   454.2    6.1      37.070
2013    6       21     7  23    4.89   454.2    6.1      37.076
2013    6       21     7  29    4.89   454.2    6.1      37.083
2013    6       21     7  35    4.89   454.3    6.1      37.090
2013    6       21     7  41    4.89   454.3    6.1      37.098
2013    6       21     7  48    4.89   454.3    6.1      37.105
2013    6       21     7  54    4.89   454.3    6.1      37.113
2013    6       21     8   0    4.90   454.4    6.1      37.121
2013    6       21     8   7    4.90   454.4    6.1      37.129
2013    6       21     8  13    4.90   454.4    6.1      37.138
2013    6       21     8  19    4.90   454.4    6.1      37.147
2013    6       21     8  25    4.90   454.5    6.1      37.156
2013    6       21     8  32    4.90   454.5    6.1      37.165
2013    6       21     8  38    4.91   454.5    6.1      37.174
2013    6       21     8  44    4.91   454.6    6.1      37.184
2013    6       21     8  50    4.91   454.6    6.1      37.194
2013    6       21     8  57    4.91   454.6    6.1      37.204
2013    6       21     9   3    4.91   454.6    6.1      37.214
2013    6       21     9   9    4.92   454.7    6.1      37.225
2013    6       21     9  15    4.92   454.7    6.1      37.236
2013    6       21     9  22    4.92   454.7    6.1      37.246
2013    6       21     9  28    4.92   454.8    6.1      37.258
2013    6       21     9  34    4.92   454.8    6.1      37.269
2013    6       21     9  40    4.92   454.8    6.1      37.280
2013    6       21     9  47    4.93   454.9    6.1      37.292
2013    6       21     9  53    4.93   454.9    6.1      37.304
2013    6       21     9  59    4.93   454.9    6.1      37.316
2013    6       21    10   5    4.93   455.0    6.1      37.329
2013    6       21    10  12    4.93   455.0    6.2      37.341
2013    6       21    10  18    4.94   455.0    6.2      37.354
2013    6       21    10  24    4.94   455.1    6.2      37.367
2013    6       21    10  30    4.94   455.1    6.2      37.381
2013    6       21    10  37    4.94   455.1    6.2      37.394
2013    6       21    10  43    4.94   455.2    6.2      37.408
2013    6       21    10  49    4.95   455.2    6.2      37.422
2013    6       21    10  55    4.95   455.3    6.2      37.436
2013    6       21    11   2    4.95   455.3    6.2      37.450
2013    6       21    11   8    4.95   455.3    6.2      37.464
2013    6       21    11  14    4.95   455.4    6.2      37.478
2013    6       21    11  20    4.96   455.4    6.2      37.492
2013    6       21    11  27    4.96   455.5    6.2      37.507
2013    6       21    11  33    4.96   455.5    6.2      37.521
2013    6       21    11  39    4.96   455.5    6.2      37.535
2013    6       21    11  45    4.96   455.6    6.2      37.549
2013    6       21    11  52    4.97   455.6    6.2      37.562
2013    6       21    11  58    4.97   455.7    6.2      37.576
2013    6       21    12   4    4.97   455.7    6.2      37.589
2013    6       21    12  10    4.97   455.7    6.2      37.602
2013    6       21    12  17    4.97   455.8    6.2      37.616
2013    6       21    12  23    4.98   455.8    6.2      37.629
2013    6       21    12  29    4.98   455.9    6.2      37.642
2013    6       21    12  35    4.98   455.9    6.2      37.655
2013    6       21    12  42    4.98   455.9    6.2      37.668
2013    6       21    12  48    4.98   456.0    6.2      37.681
2013    6       21    12  54    4.99   456.0    6.2      37.693
2013    6       21    13   1    4.99   456.1    6.2      37.706
2013    6       21    13   7    4.99   456.1    6.2      37.719
2013    6       21    13  13    4.99   456.2    6.2      37.732
2013    6       21    13  19    4.99   456.2    6.2      37.745
2013    6       21    13  26    5.00   456.3    6.2      37.758
2013    6       21    13  32    5.00   456.3    6.2      37.771
2013    6       21    13  38    5.00   456.3    6.2      37.784
2013    6       21    13  44    5.00   456.4    6.2      37.798
2013    6       21    13  51    5.00   456.4    6.2      37.811
2013    6       21    13  57    5.01   456.5    6.2      37.824
2013    6       21    14   3    5.01   456.5    6.2      37.838
2013    6       21    14  10    5.01   456.6    6.2      37.852
2013    6       21    14  16    5.01   456.6    6.2      37.865
2013    6       21    14  22    5.02   456.7    6.2      37.879
2013    6       21    14  28    5.02   456.7    6.2      37.893
2013    6       21    14  35    5.02   456.8    6.2      37.908
2013    6       21    14  41    5.02   456.8    6.2      37.922
2013    6       21    14  47    5.03   456.9    6.2      37.937
2013    6       21    14  53    5.03   456.9    6.2      37.951
2013    6       21    15   0    5.03   457.0    6.2      37.966
2013    6       21    15   6    5.03   457.0    6.2      37.982
2013    6       21    15  12    5.03   457.1    6.2      37.997
2013    6       21    15  19    5.04   457.2    6.2      38.013
2013    6       21    15  25    5.04   457.2    6.2      38.029
2013    6       21    15  31    5.04   457.3    6.2      38.046
2013    6       21    15  37    5.04   457.3    6.2      38.063
2013    6       21    15  44    5.05   457.4    6.2      38.080
2013    6       21    15  50    5.05   457.4    6.2      38.097
2013    6       21    15  56    5.05   457.5    6.2      38.114
2013    6       21    16   2    5.05   457.6    6.2      38.132
2013    6       21    16   9    5.06   457.6    6.2      38.149
2013    6       21    16  15    5.06   457.7    6.2      38.167
2013    6       21    16  21    5.06   457.8    6.2      38.185
2013    6       21    16  27    5.06   457.8    6.2      38.203
2013    6       21    16  34    5.06   457.9    6.2      38.220
2013    6       21    16  40    5.07   457.9    6.2      38.238
2013    6       21    16  46    5.07   458.0    6.2      38.255
2013    6       21    16  52    5.07   458.1    6.2      38.273
2013    6       21    16  59    5.07   458.1    6.2      38.290
2013    6       21    17   5    5.08   458.2    6.2      38.308
2013    6       21    17  11    5.08   458.3    6.2      38.325
2013    6       21    17  17    5.08   458.3    6.2      38.342
2013    6       21    17  24    5.08   458.4    6.2      38.360
2013    6       21    17  30    5.08   458.5    6.2      38.377
2013    6       21    17  36    5.09   458.5    6.2      38.394
2013    6       21    17  42    5.09   458.6    6.2      38.411
2013    6       21    17  49    5.09   458.7    6.2      38.429
2013    6       21    17  55    5.09   458.7    6.2      38.446
2013    6       21    18   1    5.10   458.8    6.2      38.463
2013    6       21    18   7    5.10   458.9    6.2      38.481
2013    6       21    18  14    5.10   458.9    6.2      38.498
2013    6       21    18  20    5.10   459.0    6.2      38.516
2013    6       21    18  26    5.11   459.1    6.2      38.534
2013    6       21    18  32    5.11   459.1    6.2      38.552
2013    6       21    18  39    5.11   459.2    6.3      38.571
2013    6       21    18  45    5.11   459.3    6.3      38.589
2013    6       21    18  51    5.12   459.3    6.3      38.609
2013    6       21    18  57    5.12   459.4    6.3      38.630
2013    6       21    19   4    5.12   459.5    6.3      38.651
2013    6       21    19  10    5.12   459.5    6.3      38.674
2013    6       21    19  16    5.13   459.6    6.3      38.697
2013    6       21    19  22    5.13   459.7    6.3      38.720
2013    6       21    19  29    5.13   459.8    6.3      38.744
2013    6       21    19  35    5.13   459.9    6.3      38.769
2013    6       21    19  41    5.14   460.0    6.3      38.794
2013    6       21    19  47    5.14   460.0    6.3      38.819
2013    6       21    19  54    5.14   460.1    6.3      38.844
2013    6       21    20   0    5.14   460.2    6.3      38.870
2013    6       21    20   6    5.15   460.3    6.3      38.896
2013    6       21    20  13    5.15   460.4    6.3      38.921
2013    6       21    20  19    5.15   460.5    6.3      38.946
2013    6       21    20  25    5.15   460.6    6.3      38.970
2013    6       21    20  31    5.16   460.7    6.3      38.994
2013    6       21    20  38    5.16   460.8    6.3      39.018
2013    6       21    20  44    5.16   460.8    6.3      39.042
2013    6       21    20  50    5.16   460.9    6.3      39.065
2013    6       21    20  56    5.17   461.0    6.3      39.089
2013    6       21    21   3    5.17   461.1    6.3      39.112
2013    6       21    21   9    5.17   461.2    6.3      39.135
2013    6       21    21  15    5.17   461.3    6.3      39.158
2013    6       21    21  22    5.18   461.4    6.3      39.180
2013    6       21    21  28    5.18   461.5    6.3      39.203
2013    6       21    21  34    5.18   461.6    6.3      39.225
2013    6       21    21  40    5.18   461.7    6.3      39.248
2013    6       21    21  47    5.19   461.8    6.3      39.270
2013    6       21    21  53    5.19   461.9    6.3      39.292
2013    6       21    21  59    5.19   462.0    6.3      39.314
2013    6       21    22   5    5.19   462.0    6.3      39.337
2013    6       21    22  12    5.19   462.1    6.3      39.359
2013    6       21    22  18    5.20   462.2    6.3      39.381
2013    6       21    22  24    5.20   462.3    6.3      39.403
2013    6       21    22  31    5.20   462.4    6.3      39.426
2013    6       21    22  37    5.20   462.5    6.3      39.449
2013    6       21    22  43    5.21   462.6    6.3      39.472
2013    6       21    22  49    5.21   462.7    6.3      39.495
2013    6       21    22  56    5.21   462.8    6.3      39.519
2013    6       21    23   2    5.21   462.9    6.3      39.542
2013    6       21    23   8    5.22   463.0    6.3      39.566
2013    6       21    23  14    5.22   463.1    6.3      39.591
2013    6       21    23  21    5.22   463.2    6.3      39.615
2013    6       21    23  27    5.22   463.4    6.3      39.640
2013    6       21    23  33    5.23   463.5    6.3      39.665
2013    6       21    23  39    5.23   463.6    6.3      39.690
2013    6       21    23  46    5.23   463.7    6.3      39.716
2013    6       21    23  52    5.23   463.8    6.3      39.742
2013    6       21    23  58    5.24   463.9    6.3      39.768
2013    6       22     0   4    5.24   464.0    6.3      39.794
2013    6       22     0  11    5.24   464.1    6.3      39.820
2013    6       22     0  17    5.24   464.2    6.3      39.847
2013    6       22     0  23    5.25   464.3    6.3      39.874
2013    6       22     0  29    5.25   464.4    6.3      39.901
2013    6       22     0  36    5.25   464.5    6.3      39.929
2013    6       22     0  42    5.25   464.7    6.3      39.957
2013    6       22     0  48    5.26   464.8    6.3      39.985
2013    6       22     0  54    5.26   464.9    6.3      40.014
2013    6       22     1   1    5.26   465.0    6.3      40.044
2013    6       22     1   7    5.26   465.1    6.3      40.074
2013    6       22     1  13    5.27   465.2    6.3      40.105
2013    6       22     1  19    5.27   465.3    6.3      40.137
2013    6       22     1  26    5.27   465.4    6.3      40.170
2013    6       22     1  32    5.28   465.5    6.3      40.204
2013    6       22     1  38    5.28   465.6    6.3      40.239
2013    6       22     1  44    5.28   465.7    6.3      40.274
2013    6       22     1  51    5.28   465.9    6.3      40.310
2013    6       22     1  57    5.29   466.0    6.3      40.346
2013    6       22     2   3    5.29   466.1    6.3      40.383
2013    6       22     2   9    5.29   466.2    6.3      40.420
2013    6       22     2  16    5.29   466.3    6.3      40.459
2013    6       22     2  22    5.30   466.4    6.3      40.498
2013    6       22     2  28    5.30   466.6    6.3      40.537
2013    6       22     2  34    5.30   466.7    6.3      40.575
2013    6       22     2  41    5.30   466.8    6.3      40.614
2013    6       22     2  47    5.31   466.9    6.3      40.653
2013    6       22     2  53    5.31   467.1    6.3      40.691
2013    6       22     2  59    5.31   467.2    6.3      40.728
2013    6       22     3   6    5.31   467.3    6.3      40.766
2013    6       22     3  12    5.32   467.5    6.3      40.803
2013    6       22     3  18    5.32   467.6    6.3      40.840
2013    6       22     3  25    5.32   467.7    6.3      40.876
2013    6       22     3  31    5.32   467.9    6.3      40.911
2013    6       22     3  37    5.33   468.0    6.3      40.945
2013    6       22     3  43    5.33   468.1    6.3      40.978
2013    6       22     3  50    5.33   468.3    6.3      41.011
2013    6       22     3  56    5.33   468.4    6.3      41.044
2013    6       22     4   2    5.33   468.5    6.3      41.076
2013    6       22     4   8    5.34   468.7    6.3      41.107
2013    6       22     4  15    5.34   468.8    6.3      41.138
2013    6       22     4  21    5.34   468.9    6.3      41.168
2013    6       22     4  27    5.34   469.1    6.3      41.198
2013    6       22     4  34    5.34   469.2    6.3      41.228
2013    6       22     4  40    5.35   469.3    6.3      41.257
2013    6       22     4  46    5.35   469.5    6.3      41.286
2013    6       22     4  52    5.35   469.6    6.3      41.315
2013    6       22     4  59    5.35   469.7    6.3      41.343
2013    6       22     5   5    5.36   469.9    6.3      41.371
2013    6       22     5  11    5.36   470.0    6.3      41.399
2013    6       22     5  17    5.36   470.1    6.3      41.427
2013    6       22     5  24    5.36   470.3    6.3      41.455
2013    6       22     5  30    5.36   470.4    6.3      41.483
2013    6       22     5  36    5.37   470.5    6.3      41.511
2013    6       22     5  43    5.37   470.7    6.3      41.538
2013    6       22     5  49    5.37   470.8    6.3      41.566
2013    6       22     5  55    5.37   471.0    6.3      41.594
2013    6       22     6   1    5.38   471.1    6.3      41.622
2013    6       22     6   8    5.38   471.2    6.3      41.650
2013    6       22     6  14    5.38   471.4    6.3      41.679
2013    6       22     6  20    5.38   471.5    6.3      41.708
2013    6       22     6  26    5.38   471.7    6.3      41.737
2013    6       22     6  33    5.39   471.8    6.3      41.767
2013    6       22     6  39    5.39   472.0    6.3      41.797
2013    6       22     6  45    5.39   472.1    6.3      41.828
2013    6       22     6  51    5.39   472.2    6.3      41.859
2013    6       22     6  58    5.40   472.4    6.3      41.890
2013    6       22     7   4    5.40   472.5    6.3      41.923
2013    6       22     7  10    5.40   472.7    6.3      41.956
2013    6       22     7  16    5.40   472.8    6.3      41.990
2013    6       22     7  23    5.41   473.0    6.3      42.025
2013    6       22     7  29    5.41   473.1    6.3      42.060
2013    6       22     7  35    5.41   473.3    6.3      42.098
2013    6       22     7  41    5.41   473.5    6.3      42.138
2013    6       22     7  48    5.42   473.6    6.3      42.180
2013    6       22     7  54    5.42   473.8    6.3      42.225
2013    6       22     8   0    5.42   474.0    6.3      42.272
2013    6       22     8   6    5.42   474.1    6.3      42.320
2013    6       22     8  13    5.43   474.3    6.3      42.370
2013    6       22     8  19    5.43   474.5    6.3      42.421
2013    6       22     8  25    5.43   474.7    6.3      42.474
2013    6       22     8  31    5.43   474.9    6.3      42.529
2013    6       22     8  38    5.44   475.1    6.3      42.585
2013    6       22     8  44    5.44   475.3    6.3      42.642
2013    6       22     8  50    5.44   475.4    6.3      42.698
2013    6       22     8  56    5.44   475.6    6.3      42.755
2013    6       22     9   3    5.44   475.8    6.3      42.811
2013    6       22     9   9    5.45   476.0    6.3      42.866
2013    6       22     9  15    5.45   476.2    6.3      42.921
2013    6       22     9  21    5.45   476.4    6.3      42.975
2013    6       22     9  28    5.45   476.6    6.3      43.028
2013    6       22     9  34    5.45   476.8    6.3      43.080
2013    6       22     9  40    5.46   477.0    6.3      43.132
2013    6       22     9  46    5.46   477.2    6.3      43.183
2013    6       22     9  53    5.46   477.4    6.3      43.233
2013    6       22     9  59    5.46   477.6    6.3      43.282
2013    6       22    10   5    5.46   477.8    6.3      43.329
2013    6       22    10  11    5.46   478.0    6.3      43.376
2013    6       22    10  18    5.47   478.1    6.3      43.422
2013    6       22    10  24    5.47   478.3    6.3      43.467
2013    6       22    10  30    5.47   478.5    6.3      43.512
2013    6       22    10  37    5.47   478.7    6.3      43.555
2013    6       22    10  43    5.47   478.9    6.3      43.599
2013    6       22    10  49    5.47   479.1    6.3      43.641
2013    6       22    10  55    5.48   479.3    6.3      43.683
2013    6       22    11   2    5.48   479.5    6.3      43.725
2013    6       22    11   8    5.48   479.7    6.3      43.767
2013    6       22    11  14    5.48   479.9    6.3      43.808
2013    6       22    11  20    5.48   480.1    6.3      43.849
2013    6       22    11  27    5.48   480.3    6.3      43.890
2013    6       22    11  33    5.49   480.5    6.3      43.932
2013    6       22    11  39    5.49   480.7    6.3      43.975
2013    6       22    11  46    5.49   480.9    6.3      44.018
2013    6       22    11  52    5.49   481.1    6.3      44.062
2013    6       22    11  58    5.49   481.3    6.3      44.106
2013    6       22    12   4    5.49   481.5    6.3      44.150
2013    6       22    12  11    5.50   481.7    6.2      44.195
2013    6       22    12  17    5.50   481.9    6.2      44.240
2013    6       22    12  23    5.50   482.2    6.2      44.285
2013    6       22    12  29    5.50   482.4    6.2      44.329
2013    6       22    12  36    5.50   482.6    6.2      44.373
2013    6       22    12  42    5.51   482.8    6.2      44.417
2013    6       22    12  48    5.51   483.1    6.2      44.459
2013    6       22    12  55    5.51   483.3    6.2      44.500
2013    6       22    13   1    5.51   483.5    6.2      44.541
2013    6       22    13   7    5.51   483.8    6.2      44.580
2013    6       22    13  13    5.51   484.0    6.2      44.618
2013    6       22    13  20    5.51   484.2    6.2      44.655
2013    6       22    13  26    5.52   484.5    6.2      44.691
2013    6       22    13  32    5.52   484.7    6.2      44.727
2013    6       22    13  38    5.52   484.9    6.2      44.762
2013    6       22    13  45    5.52   485.2    6.2      44.796
2013    6       22    13  51    5.52   485.4    6.2      44.829
2013    6       22    13  57    5.52   485.7    6.2      44.862
2013    6       22    14   3    5.52   485.9    6.2      44.895
2013    6       22    14  10    5.52   486.1    6.2      44.927
2013    6       22    14  16    5.52   486.4    6.2      44.959
2013    6       22    14  22    5.52   486.6    6.2      44.991
2013    6       22    14  28    5.52   486.8    6.2      45.023
2013    6       22    14  35    5.52   487.1    6.2      45.054
2013    6       22    14  41    5.53   487.3    6.2      45.086
2013    6       22    14  47    5.53   487.6    6.2      45.118
2013    6       22    14  53    5.53   487.8    6.2      45.152
2013    6       22    15   0    5.53   488.1    6.1      45.187
2013    6       22    15   6    5.53   488.3    6.1      45.225
2013    6       22    15  12    5.53   488.6    6.1      45.263
2013    6       22    15  18    5.53   488.8    6.1      45.304
2013    6       22    15  25    5.53   489.1    6.1      45.345
2013    6       22    15  31    5.53   489.4    6.1      45.387
2013    6       22    15  37    5.53   489.6    6.1      45.430
2013    6       22    15  43    5.53   489.9    6.1      45.475
2013    6       22    15  50    5.53   490.2    6.1      45.520
2013    6       22    15  56    5.53   490.5    6.1      45.565
2013    6       22    16   2    5.53   490.8    6.1      45.610
2013    6       22    16   8    5.53   491.0    6.1      45.655
2013    6       22    16  15    5.53   491.3    6.1      45.698
2013    6       22    16  21    5.53   491.6    6.1      45.741
2013    6       22    16  27    5.53   491.9    6.1      45.783
2013    6       22    16  33    5.53   492.2    6.1      45.825
2013    6       22    16  40    5.53   492.4    6.1      45.866
2013    6       22    16  46    5.53   492.7    6.1      45.906
2013    6       22    16  52    5.52   493.0    6.0      45.946
2013    6       22    16  58    5.52   493.3    6.0      45.985
2013    6       22    17   5    5.52   493.5    6.0      46.023
2013    6       22    17  11    5.52   493.8    6.0      46.062
2013    6       22    17  17    5.52   494.1    6.0      46.099
2013    6       22    17  23    5.52   494.4    6.0      46.137
2013    6       22    17  30    5.52   494.6    6.0      46.173
2013    6       22    17  36    5.52   494.9    6.0      46.210
2013    6       22    17  42    5.51   495.2    6.0      46.246
2013    6       22    17  49    5.51   495.5    6.0      46.281
2013    6       22    17  55    5.51   495.7    6.0      46.316
2013    6       22    18   1    5.51   496.0    6.0      46.351
2013    6       22    18   7    5.51   496.3    6.0      46.385
2013    6       22    18  14    5.51   496.5    5.9      46.420
2013    6       22    18  20    5.50   496.8    5.9      46.454
2013    6       22    18  26    5.50   497.0    5.9      46.488
2013    6       22    18  32    5.50   497.3    5.9      46.523
2013    6       22    18  39    5.50   497.6    5.9      46.558
2013    6       22    18  45    5.50   497.8    5.9      46.594
2013    6       22    18  51    5.50   498.1    5.9      46.631
2013    6       22    18  57    5.49   498.3    5.9      46.669
2013    6       22    19   4    5.49   498.6    5.9      46.708
2013    6       22    19  10    5.49   498.9    5.9      46.749
2013    6       22    19  16    5.49   499.2    5.9      46.790
2013    6       22    19  23    5.49   499.5    5.9      46.832
2013    6       22    19  29    5.49   499.7    5.9      46.875
2013    6       22    19  35    5.48   500.0    5.9      46.917
2013    6       22    19  41    5.48   500.3    5.8      46.960
2013    6       22    19  48    5.48   500.6    5.8      47.002
2013    6       22    19  54    5.48   500.9    5.8      47.044
2013    6       22    20   0    5.48   501.2    5.8      47.085
2013    6       22    20   7    5.47   501.5    5.8      47.123
2013    6       22    20  13    5.47   501.8    5.8      47.161
2013    6       22    20  19    5.47   502.1    5.8      47.196
2013    6       22    20  25    5.47   502.4    5.8      47.231
2013    6       22    20  32    5.46   502.7    5.8      47.263
2013    6       22    20  38    5.46   503.0    5.8      47.294
2013    6       22    20  44    5.46   503.3    5.8      47.324
2013    6       22    20  50    5.45   503.6    5.8      47.353
2013    6       22    20  57    5.45   503.8    5.7      47.380
2013    6       22    21   3    5.45   504.1    5.7      47.405
2013    6       22    21   9    5.44   504.4    5.7      47.429
2013    6       22    21  15    5.44   504.7    5.7      47.452
2013    6       22    21  22    5.44   505.0    5.7      47.473
2013    6       22    21  28    5.43   505.3    5.7      47.492
2013    6       22    21  34    5.43   505.6    5.7      47.511
2013    6       22    21  40    5.42   505.9    5.7      47.528
2013    6       22    21  47    5.42   506.2    5.7      47.544
2013    6       22    21  53    5.42   506.5    5.7      47.559
2013    6       22    21  59    5.41   506.7    5.6      47.573
2013    6       22    22   5    5.41   507.0    5.6      47.586
2013    6       22    22  12    5.40   507.3    5.6      47.598
2013    6       22    22  18    5.40   507.6    5.6      47.610
2013    6       22    22  24    5.39   507.9    5.6      47.621
2013    6       22    22  30    5.39   508.2    5.6      47.631
2013    6       22    22  37    5.38   508.5    5.6      47.641
2013    6       22    22  43    5.38   508.7    5.6      47.650
2013    6       22    22  49    5.38   509.0    5.6      47.659
2013    6       22    22  55    5.37   509.3    5.5      47.666
2013    6       22    23   2    5.37   509.6    5.5      47.673
2013    6       22    23   8    5.36   509.9    5.5      47.679
2013    6       22    23  14    5.36   510.2    5.5      47.685
2013    6       22    23  20    5.35   510.4    5.5      47.689
2013    6       22    23  27    5.35   510.7    5.5      47.693
2013    6       22    23  33    5.34   511.0    5.5      47.696
2013    6       22    23  39    5.33   511.2    5.5      47.698
2013    6       22    23  45    5.33   511.5    5.4      47.699
2013    6       22    23  52    5.32   511.8    5.4      47.700
2013    6       22    23  58    5.32   512.0    5.4      47.700
2013    6       23     0   4    5.31   512.3    5.4      47.700
2013    6       23     0  10    5.31   512.6    5.4      47.699
2013    6       23     0  17    5.30   512.9    5.4      47.699
2013    6       23     0  23    5.30   513.1    5.4      47.698
2013    6       23     0  29    5.29   513.4    5.4      47.695
2013    6       23     0  35    5.28   513.7    5.3      47.692
2013    6       23     0  42    5.28   513.9    5.3      47.687
2013    6       23     0  48    5.27   514.2    5.3      47.681
2013    6       23     0  54    5.27   514.5    5.3      47.674
2013    6       23     1   0    5.26   514.7    5.3      47.666
2013    6       23     1   7    5.25   514.9    5.3      47.657
2013    6       23     1  13    5.25   515.2    5.3      47.647
2013    6       23     1  19    5.24   515.4    5.3      47.636
2013    6       23     1  26    5.23   515.6    5.2      47.623
2013    6       23     1  32    5.23   515.8    5.2      47.611
2013    6       23     1  38    5.22   516.0    5.2      47.599
2013    6       23     1  44    5.21   516.2    5.2      47.588
2013    6       23     1  51    5.21   516.4    5.2      47.578
2013    6       23     1  57    5.20   516.6    5.2      47.569
2013    6       23     2   3    5.20   516.8    5.2      47.562
2013    6       23     2   9    5.19   517.0    5.2      47.556
2013    6       23     2  16    5.18   517.2    5.1      47.552
2013    6       23     2  22    5.18   517.4    5.1      47.550
2013    6       23     2  28    5.17   517.6    5.1      47.548
2013    6       23     2  35    5.16   517.8    5.1      47.547
2013    6       23     2  41    5.16   518.1    5.1      47.546
2013    6       23     2  47    5.15   518.3    5.1      47.545
2013    6       23     2  53    5.15   518.5    5.1      47.545
2013    6       23     3   0    5.14   518.8    5.1      47.543
2013    6       23     3   6    5.13   519.0    5.1      47.541
2013    6       23     3  12    5.13   519.2    5.1      47.538
2013    6       23     3  18    5.12   519.5    5.0      47.533
2013    6       23     3  25    5.11   519.7    5.0      47.527
2013    6       23     3  31    5.11   519.9    5.0      47.520
2013    6       23     3  37    5.10   520.1    5.0      47.511
2013    6       23     3  44    5.09   520.3    5.0      47.501
2013    6       23     3  50    5.08   520.5    5.0      47.489
2013    6       23     3  56    5.08   520.7    5.0      47.477
2013    6       23     4   2    5.07   521.0    5.0      47.463
2013    6       23     4   9    5.06   521.1    5.0      47.448
2013    6       23     4  15    5.06   521.3    4.9      47.432
2013    6       23     4  21    5.05   521.5    4.9      47.415
2013    6       23     4  27    5.04   521.7    4.9      47.397
2013    6       23     4  34    5.03   521.9    4.9      47.378
2013    6       23     4  40    5.03   522.1    4.9      47.357
2013    6       23     4  46    5.02   522.2    4.9      47.336
2013    6       23     4  52    5.01   522.4    4.9      47.314
2013    6       23     4  59    5.01   522.6    4.9      47.291
2013    6       23     5   5    5.00   522.7    4.9      47.268
2013    6       23     5  11    4.99   522.8    4.9      47.244
2013    6       23     5  17    4.98   523.0    4.8      47.221
2013    6       23     5  24    4.98   523.1    4.8      47.198
2013    6       23     5  30    4.97   523.2    4.8      47.175
2013    6       23     5  36    4.96   523.4    4.8      47.152
2013    6       23     5  42    4.96   523.5    4.8      47.130
2013    6       23     5  49    4.95   523.6    4.8      47.108
2013    6       23     5  55    4.94   523.7    4.8      47.088
2013    6       23     6   1    4.94   523.8    4.8      47.068
2013    6       23     6   7    4.93   524.0    4.8      47.048
2013    6       23     6  14    4.92   524.1    4.8      47.029
2013    6       23     6  20    4.92   524.2    4.8      47.009
2013    6       23     6  26    4.91   524.3    4.8      46.990
2013    6       23     6  32    4.90   524.4    4.8      46.969
2013    6       23     6  39    4.90   524.5    4.7      46.948
2013    6       23     6  45    4.89   524.6    4.7      46.926
2013    6       23     6  51    4.88   524.7    4.7      46.903
2013    6       23     6  57    4.88   524.8    4.7      46.879
2013    6       23     7   4    4.87   524.9    4.7      46.854
2013    6       23     7  10    4.86   525.1    4.7      46.827
2013    6       23     7  16    4.86   525.2    4.7      46.798
2013    6       23     7  22    4.85   525.3    4.7      46.768
2013    6       23     7  29    4.84   525.4    4.7      46.738
2013    6       23     7  35    4.84   525.5    4.7      46.707
2013    6       23     7  41    4.83   525.7    4.7      46.674
2013    6       23     7  47    4.82   525.8    4.7      46.640
2013    6       23     7  54    4.82   525.9    4.6      46.604
2013    6       23     8   0    4.81   526.0    4.6      46.565
2013    6       23     8   6    4.80   526.2    4.6      46.526
2013    6       23     8  12    4.80   526.3    4.6      46.486
2013    6       23     8  19    4.79   526.4    4.6      46.444
2013    6       23     8  25    4.78   526.5    4.6      46.400
2013    6       23     8  31    4.78   526.5    4.6      46.356
2013    6       23     8  38    4.77   526.6    4.6      46.310
2013    6       23     8  44    4.76   526.7    4.6      46.263
2013    6       23     8  50    4.75   526.7    4.6      46.215
2013    6       23     8  56    4.75   526.8    4.5      46.168
2013    6       23     9   3    4.74   526.8    4.5      46.121
2013    6       23     9   9    4.74   526.9    4.5      46.075
2013    6       23     9  15    4.73   526.9    4.5      46.030
2013    6       23     9  21    4.72   527.0    4.5      45.986
2013    6       23     9  28    4.72   527.0    4.5      45.944
2013    6       23     9  34    4.71   527.1    4.5      45.902
2013    6       23     9  40    4.70   527.1    4.5      45.862
2013    6       23     9  47    4.70   527.2    4.5      45.822
2013    6       23     9  53    4.69   527.3    4.5      45.782
2013    6       23     9  59    4.69   527.3    4.5      45.743
2013    6       23    10   5    4.68   527.4    4.5      45.704
2013    6       23    10  12    4.67   527.5    4.4      45.666
2013    6       23    10  18    4.67   527.6    4.4      45.626
2013    6       23    10  24    4.66   527.6    4.4      45.586
2013    6       23    10  30    4.65   527.7    4.4      45.546
2013    6       23    10  37    4.65   527.8    4.4      45.504
2013    6       23    10  43    4.64   527.9    4.4      45.461
2013    6       23    10  49    4.64   527.9    4.4      45.417
2013    6       23    10  56    4.63   528.0    4.4      45.372
2013    6       23    11   2    4.62   528.1    4.4      45.327
2013    6       23    11   8    4.62   528.1    4.4      45.281
2013    6       23    11  14    4.61   528.2    4.4      45.234
2013    6       23    11  21    4.60   528.2    4.4      45.187
2013    6       23    11  27    4.60   528.3    4.4      45.139
2013    6       23    11  33    4.59   528.3    4.3      45.091
2013    6       23    11  39    4.59   528.4    4.3      45.044
2013    6       23    11  46    4.58   528.4    4.3      44.996
2013    6       23    11  52    4.57   528.4    4.3      44.948
2013    6       23    11  58    4.57   528.5    4.3      44.901
2013    6       23    12   4    4.56   528.5    4.3      44.853
2013    6       23    12  11    4.56   528.5    4.3      44.807
2013    6       23    12  17    4.55   528.5    4.3      44.761
2013    6       23    12  23    4.55   528.5    4.3      44.715
2013    6       23    12  29    4.54   528.5    4.3      44.672
2013    6       23    12  36    4.54   528.5    4.3      44.629
2013    6       23    12  42    4.53   528.5    4.3      44.588
2013    6       23    12  48    4.52   528.5    4.3      44.548
2013    6       23    12  54    4.52   528.4    4.3      44.510
2013    6       23    13   1    4.51   528.4    4.3      44.473
2013    6       23    13   7    4.51   528.4    4.3      44.440
2013    6       23    13  13    4.51   528.4    4.3      44.408
2013    6       23    13  19    4.50   528.3    4.2      44.378
2013    6       23    13  26    4.50   528.3    4.2      44.349
2013    6       23    13  32    4.49   528.3    4.2      44.322
2013    6       23    13  38    4.49   528.2    4.2      44.296
2013    6       23    13  44    4.48   528.2    4.2      44.271
2013    6       23    13  51    4.48   528.2    4.2      44.247
2013    6       23    13  57    4.47   528.2    4.2      44.223
2013    6       23    14   3    4.47   528.1    4.2      44.198
2013    6       23    14   9    4.46   528.1    4.2      44.174
2013    6       23    14  16    4.46   528.1    4.2      44.149
2013    6       23    14  22    4.46   528.1    4.2      44.124
2013    6       23    14  28    4.45   528.1    4.2      44.098
2013    6       23    14  34    4.45   528.0    4.2      44.070
2013    6       23    14  41    4.44   528.0    4.2      44.041
2013    6       23    14  47    4.44   528.0    4.2      44.012
2013    6       23    14  53    4.43   528.0    4.2      43.981
2013    6       23    14  59    4.43   528.0    4.2      43.950
2013    6       23    15   6    4.43   528.0    4.2      43.917
2013    6       23    15  12    4.42   527.9    4.2      43.884
2013    6       23    15  18    4.42   527.9    4.2      43.850
2013    6       23    15  24    4.41   527.9    4.2      43.815
2013    6       23    15  31    4.41   527.9    4.2      43.780
2013    6       23    15  37    4.40   527.9    4.2      43.744
2013    6       23    15  43    4.40   527.8    4.2      43.707
2013    6       23    15  50    4.39   527.8    4.2      43.670
2013    6       23    15  56    4.39   527.8    4.2      43.632
2013    6       23    16   2    4.38   527.8    4.2      43.594
2013    6       23    16   8    4.38   527.8    4.2      43.555
2013    6       23    16  15    4.38   527.7    4.2      43.516
2013    6       23    16  21    4.37   527.7    4.1      43.476
2013    6       23    16  27    4.37   527.7    4.1      43.437
2013    6       23    16  33    4.36   527.6    4.1      43.396
2013    6       23    16  40    4.36   527.6    4.1      43.355
2013    6       23    16  46    4.35   527.6    4.1      43.314
2013    6       23    16  52    4.35   527.6    4.1      43.273
2013    6       23    16  59    4.34   527.5    4.1      43.231
2013    6       23    17   5    4.34   527.5    4.1      43.188
2013    6       23    17  11    4.34   527.5    4.1      43.145
2013    6       23    17  17    4.33   527.4    4.1      43.103
2013    6       23    17  24    4.33   527.4    4.1      43.059
2013    6       23    17  30    4.32   527.4    4.1      43.015
2013    6       23    17  36    4.32   527.3    4.1      42.971
2013    6       23    17  42    4.31   527.3    4.1      42.927
2013    6       23    17  49    4.31   527.2    4.1      42.882
2013    6       23    17  55    4.31   527.2    4.1      42.838
2013    6       23    18   1    4.30   527.1    4.1      42.793
2013    6       23    18   8    4.30   527.1    4.1      42.748
2013    6       23    18  14    4.29   527.0    4.1      42.703
2013    6       23    18  20    4.29   527.0    4.1      42.658
2013    6       23    18  26    4.28   526.9    4.1      42.612
2013    6       23    18  33    4.28   526.9    4.1      42.567
2013    6       23    18  39    4.28   526.8    4.1      42.522
2013    6       23    18  45    4.27   526.8    4.0      42.478
2013    6       23    18  51    4.27   526.7    4.0      42.433
2013    6       23    18  58    4.26   526.7    4.0      42.389
2013    6       23    19   4    4.26   526.6    4.0      42.345
2013    6       23    19  10    4.26   526.5    4.0      42.302
2013    6       23    19  16    4.25   526.5    4.0      42.259
2013    6       23    19  23    4.25   526.4    4.0      42.217
2013    6       23    19  29    4.24   526.3    4.0      42.175
2013    6       23    19  35    4.24   526.3    4.0      42.134
2013    6       23    19  41    4.24   526.2    4.0      42.094
2013    6       23    19  48    4.23   526.1    4.0      42.054
2013    6       23    19  54    4.23   526.0    4.0      42.015
2013    6       23    20   0    4.23   526.0    4.0      41.978
2013    6       23    20   6    4.22   525.9    4.0      41.941
2013    6       23    20  13    4.22   525.8    4.0      41.905
2013    6       23    20  19    4.22   525.7    4.0      41.870
2013    6       23    20  25    4.21   525.7    4.0      41.836
2013    6       23    20  31    4.21   525.6    4.0      41.802
2013    6       23    20  38    4.21   525.5    4.0      41.769
2013    6       23    20  44    4.20   525.4    4.0      41.737
2013    6       23    20  50    4.20   525.4    4.0      41.706
2013    6       23    20  56    4.20   525.3    4.0      41.675
2013    6       23    21   3    4.19   525.2    4.0      41.645
2013    6       23    21   9    4.19   525.1    4.0      41.615
2013    6       23    21  15    4.19   525.1    4.0      41.585
2013    6       23    21  21    4.18   525.0    4.0      41.556
2013    6       23    21  28    4.18   524.9    4.0      41.526
2013    6       23    21  34    4.18   524.8    4.0      41.496
2013    6       23    21  40    4.17   524.7    4.0      41.466
2013    6       23    21  46    4.17   524.7    4.0      41.436
2013    6       23    21  53    4.17   524.6    4.0      41.405
2013    6       23    21  59    4.16   524.5    4.0      41.374
2013    6       23    22   5    4.16   524.4    4.0      41.343
2013    6       23    22  11    4.16   524.3    4.0      41.311
2013    6       23    22  18    4.15   524.2    3.9      41.278
2013    6       23    22  24    4.15   524.2    3.9      41.245
2013    6       23    22  30    4.15   524.1    3.9      41.212
2013    6       23    22  36    4.14   524.0    3.9      41.178
2013    6       23    22  43    4.14   523.9    3.9      41.144
2013    6       23    22  49    4.14   523.8    3.9      41.109
2013    6       23    22  55    4.13   523.7    3.9      41.074
2013    6       23    23   2    4.13   523.6    3.9      41.039
2013    6       23    23   8    4.13   523.6    3.9      41.003
2013    6       23    23  14    4.12   523.5    3.9      40.966
2013    6       23    23  20    4.12   523.4    3.9      40.930
2013    6       23    23  27    4.12   523.3    3.9      40.892
2013    6       23    23  33    4.11   523.2    3.9      40.855
2013    6       23    23  39    4.11   523.1    3.9      40.817
2013    6       23    23  45    4.11   523.0    3.9      40.779
2013    6       23    23  52    4.10   522.9    3.9      40.741
2013    6       23    23  58    4.10   522.8    3.9      40.703
2013    6       24     0   4    4.10   522.7    3.9      40.664
2013    6       24     0  10    4.09   522.6    3.9      40.625
2013    6       24     0  17    4.09   522.5    3.9      40.586
2013    6       24     0  23    4.09   522.4    3.9      40.548
2013    6       24     0  29    4.08   522.3    3.9      40.509
2013    6       24     0  36    4.08   522.2    3.9      40.470
2013    6       24     0  42    4.08   522.1    3.9      40.431
2013    6       24     0  48    4.07   522.0    3.9      40.393
2013    6       24     0  54    4.07   521.9    3.9      40.355
2013    6       24     1   1    4.07   521.8    3.9      40.317
2013    6       24     1   7    4.06   521.7    3.9      40.279
2013    6       24     1  13    4.06   521.6    3.9      40.241
2013    6       24     1  20    4.06   521.5    3.9      40.204
2013    6       24     1  26    4.05   521.4    3.9      40.166
2013    6       24     1  32    4.05   521.3    3.9      40.129
2013    6       24     1  38    4.05   521.2    3.9      40.093
2013    6       24     1  45    4.04   521.1    3.9      40.057
2013    6       24     1  51    4.04   521.0    3.9      40.022
2013    6       24     1  57    4.04   520.8    3.9      39.986
2013    6       24     2   3    4.04   520.7    3.9      39.952
2013    6       24     2  10    4.03   520.6    3.9      39.917
2013    6       24     2  16    4.03   520.5    3.9      39.883
2013    6       24     2  22    4.03   520.4    3.9      39.849
2013    6       24     2  28    4.02   520.3    3.9      39.815
2013    6       24     2  35    4.02   520.1    3.9      39.781
2013    6       24     2  41    4.02   520.0    3.9      39.748
2013    6       24     2  47    4.01   519.9    3.9      39.714
2013    6       24     2  53    4.01   519.8    3.9      39.681
2013    6       24     3   0    4.01   519.7    3.9      39.648
2013    6       24     3   6    4.01   519.5    3.9      39.615
2013    6       24     3  12    4.00   519.4    3.9      39.582
2013    6       24     3  18    4.00   519.3    3.9      39.549
2013    6       24     3  25    4.00   519.1    3.9      39.516
2013    6       24     3  31    3.99   519.0    3.9      39.483
2013    6       24     3  37    3.99   518.9    3.9      39.450
2013    6       24     3  43    3.99   518.8    3.9      39.418
2013    6       24     3  50    3.99   518.6    3.9      39.385
2013    6       24     3  56    3.98   518.5    3.8      39.352
2013    6       24     4   2    3.98   518.4    3.8      39.320
2013    6       24     4   8    3.98   518.2    3.8      39.287
2013    6       24     4  15    3.97   518.1    3.8      39.254
2013    6       24     4  21    3.97   518.0    3.8      39.222
2013    6       24     4  27    3.97   517.8    3.8      39.189
2013    6       24     4  33    3.97   517.7    3.8      39.156
2013    6       24     4  40    3.96   517.6    3.8      39.122
2013    6       24     4  46    3.96   517.4    3.8      39.089
2013    6       24     4  52    3.96   517.3    3.8      39.055
2013    6       24     4  58    3.96   517.2    3.8      39.020
2013    6       24     5   5    3.95   517.0    3.8      38.986
2013    6       24     5  11    3.95   516.9    3.8      38.951
2013    6       24     5  17    3.95   516.8    3.8      38.915
2013    6       24     5  23    3.95   516.6    3.8      38.880
2013    6       24     5  30    3.94   516.5    3.8      38.843
2013    6       24     5  36    3.94   516.4    3.8      38.807
2013    6       24     5  42    3.94   516.2    3.8      38.770
2013    6       24     5  48    3.94   516.1    3.8      38.733
2013    6       24     5  55    3.93   515.9    3.8      38.696
2013    6       24     6   1    3.93   515.8    3.8      38.658
2013    6       24     6   7    3.93   515.7    3.8      38.620
2013    6       24     6  13    3.92   515.5    3.8      38.582
2013    6       24     6  20    3.92   515.4    3.8      38.543
2013    6       24     6  26    3.92   515.2    3.8      38.505
2013    6       24     6  32    3.92   515.1    3.8      38.466
2013    6       24     6  39    3.91   515.0    3.8      38.426
2013    6       24     6  45    3.91   514.8    3.8      38.387
2013    6       24     6  51    3.91   514.7    3.8      38.347
2013    6       24     6  57    3.91   514.5    3.8      38.307
2013    6       24     7   4    3.90   514.4    3.8      38.267
2013    6       24     7  10    3.90   514.2    3.8      38.227
2013    6       24     7  16    3.90   514.1    3.8      38.187
2013    6       24     7  22    3.90   513.9    3.8      38.147
2013    6       24     7  29    3.89   513.8    3.8      38.108
2013    6       24     7  35    3.89   513.6    3.8      38.068
2013    6       24     7  41    3.89   513.5    3.8      38.028
2013    6       24     7  48    3.89   513.3    3.8      37.989
2013    6       24     7  54    3.88   513.2    3.8      37.950
2013    6       24     8   0    3.88   513.0    3.8      37.912
2013    6       24     8   6    3.88   512.9    3.8      37.874
2013    6       24     8  13    3.88   512.7    3.8      37.836
2013    6       24     8  19    3.87   512.6    3.8      37.799
2013    6       24     8  25    3.87   512.5    3.8      37.762
2013    6       24     8  31    3.87   512.3    3.8      37.726
2013    6       24     8  38    3.87   512.2    3.8      37.690
2013    6       24     8  44    3.86   512.0    3.8      37.654
2013    6       24     8  50    3.86   511.9    3.8      37.619
2013    6       24     8  57    3.86   511.7    3.8      37.584
2013    6       24     9   3    3.86   511.6    3.8      37.550
2013    6       24     9   9    3.85   511.4    3.8      37.516
2013    6       24     9  15    3.85   511.3    3.8      37.483
2013    6       24     9  22    3.85   511.2    3.8      37.450
2013    6       24     9  28    3.85   511.0    3.8      37.416
2013    6       24     9  34    3.84   510.9    3.8      37.384
2013    6       24     9  40    3.84   510.7    3.8      37.351
2013    6       24     9  47    3.84   510.6    3.8      37.318
2013    6       24     9  53    3.84   510.4    3.8      37.284
2013    6       24     9  59    3.83   510.3    3.8      37.252
2013    6       24    10   5    3.83   510.1    3.8      37.219
2013    6       24    10  12    3.83   509.9    3.8      37.185
2013    6       24    10  18    3.83   509.8    3.8      37.152
2013    6       24    10  24    3.82   509.6    3.8      37.118
2013    6       24    10  30    3.82   509.5    3.8      37.084
2013    6       24    10  37    3.82   509.3    3.8      37.051
2013    6       24    10  43    3.82   509.1    3.8      37.016
2013    6       24    10  49    3.81   509.0    3.8      36.983
2013    6       24    10  55    3.81   508.8    3.8      36.949
2013    6       24    11   2    3.81   508.6    3.8      36.915
2013    6       24    11   8    3.81   508.5    3.8      36.881
2013    6       24    11  14    3.80   508.3    3.8      36.847
2013    6       24    11  20    3.80   508.1    3.8      36.814
2013    6       24    11  27    3.80   508.0    3.8      36.780
2013    6       24    11  33    3.80   507.8    3.8      36.747
2013    6       24    11  39    3.80   507.6    3.8      36.715
2013    6       24    11  45    3.79   507.4    3.8      36.682
2013    6       24    11  52    3.79   507.3    3.8      36.650
2013    6       24    11  58    3.79   507.1    3.8      36.619
2013    6       24    12   4    3.79   506.9    3.8      36.588
2013    6       24    12  10    3.78   506.7    3.8      36.557
2013    6       24    12  17    3.78   506.6    3.8      36.526
2013    6       24    12  23    3.78   506.4    3.8      36.496
2013    6       24    12  29    3.78   506.2    3.8      36.467
2013    6       24    12  35    3.78   506.0    3.8      36.438
2013    6       24    12  42    3.77   505.9    3.8      36.411
2013    6       24    12  48    3.77   505.7    3.8      36.383
2013    6       24    12  54    3.77   505.5    3.8      36.357
2013    6       24    13   0    3.77   505.3    3.8      36.330
2013    6       24    13   7    3.77   505.1    3.8      36.304
2013    6       24    13  13    3.76   505.0    3.8      36.278
2013    6       24    13  19    3.76   504.8    3.8      36.251
2013    6       24    13  25    3.76   504.6    3.8      36.225
2013    6       24    13  32    3.76   504.4    3.8      36.199
2013    6       24    13  38    3.76   504.3    3.8      36.173
2013    6       24    13  44    3.76   504.1    3.8      36.145
2013    6       24    13  51    3.75   503.9    3.8      36.118
2013    6       24    13  57    3.75   503.7    3.8      36.089
2013    6       24    14   3    3.75   503.6    3.8      36.060
2013    6       24    14   9    3.75   503.4    3.8      36.030
2013    6       24    14  16    3.75   503.2    3.8      36.000
2013    6       24    14  22    3.74   503.1    3.8      35.969
2013    6       24    14  28    3.74   502.9    3.8      35.937
2013    6       24    14  34    3.74   502.7    3.8      35.904
2013    6       24    14  41    3.74   502.5    3.8      35.871
2013    6       24    14  47    3.74   502.4    3.8      35.837
2013    6       24    14  53    3.73   502.2    3.8      35.803
2013    6       24    15   0    3.73   502.0    3.8      35.768
2013    6       24    15   6    3.73   501.9    3.8      35.732
2013    6       24    15  12    3.73   501.7    3.8      35.696
2013    6       24    15  18    3.72   501.5    3.8      35.660
2013    6       24    15  25    3.72   501.3    3.8      35.622
2013    6       24    15  31    3.72   501.2    3.8      35.585
2013    6       24    15  37    3.72   501.0    3.8      35.547
2013    6       24    15  43    3.72   500.8    3.8      35.508
2013    6       24    15  50    3.71   500.6    3.8      35.469
2013    6       24    15  56    3.71   500.5    3.8      35.430
2013    6       24    16   2    3.71   500.3    3.7      35.390
2013    6       24    16   9    3.71   500.1    3.7      35.350
2013    6       24    16  15    3.71   499.9    3.7      35.310
2013    6       24    16  21    3.70   499.7    3.7      35.269
2013    6       24    16  27    3.70   499.6    3.7      35.228
2013    6       24    16  34    3.70   499.4    3.7      35.187
2013    6       24    16  40    3.70   499.2    3.7      35.146
2013    6       24    16  46    3.69   499.0    3.7      35.104
2013    6       24    16  52    3.69   498.8    3.7      35.062
2013    6       24    16  59    3.69   498.6    3.7      35.020
2013    6       24    17   5    3.69   498.5    3.7      34.978
2013    6       24    17  11    3.69   498.3    3.7      34.936
2013    6       24    17  17    3.68   498.1    3.7      34.893
2013    6       24    17  24    3.68   497.9    3.7      34.851
2013    6       24    17  30    3.68   497.7    3.7      34.808
2013    6       24    17  36    3.68   497.5    3.7      34.766
2013    6       24    17  42    3.68   497.3    3.7      34.723
2013    6       24    17  49    3.67   497.1    3.7      34.680
2013    6       24    17  55    3.67   496.9    3.7      34.638
2013    6       24    18   1    3.67   496.7    3.7      34.596
2013    6       24    18   7    3.67   496.5    3.7      34.554
2013    6       24    18  14    3.66   496.3    3.7      34.511
2013    6       24    18  20    3.66   496.1    3.7      34.470
2013    6       24    18  26    3.66   495.9    3.7      34.428
2013    6       24    18  32    3.66   495.7    3.7      34.387
2013    6       24    18  39    3.66   495.5    3.7      34.347
2013    6       24    18  45    3.65   495.3    3.7      34.307
2013    6       24    18  51    3.65   495.1    3.7      34.267
2013    6       24    18  57    3.65   494.9    3.7      34.228
2013    6       24    19   4    3.65   494.7    3.7      34.190
2013    6       24    19  10    3.65   494.5    3.7      34.152
2013    6       24    19  16    3.64   494.3    3.7      34.115
2013    6       24    19  22    3.64   494.1    3.7      34.079
2013    6       24    19  29    3.64   493.9    3.7      34.044
2013    6       24    19  35    3.64   493.7    3.7      34.010
2013    6       24    19  41    3.64   493.4    3.7      33.976
2013    6       24    19  47    3.64   493.2    3.7      33.944
2013    6       24    19  54    3.63   493.0    3.7      33.914
2013    6       24    20   0    3.63   492.8    3.7      33.884
2013    6       24    20   6    3.63   492.6    3.7      33.856
2013    6       24    20  12    3.63   492.4    3.7      33.829
2013    6       24    20  19    3.63   492.2    3.7      33.803
2013    6       24    20  25    3.63   492.0    3.7      33.778
2013    6       24    20  31    3.63   491.8    3.7      33.754
2013    6       24    20  37    3.62   491.6    3.7      33.730
2013    6       24    20  44    3.62   491.4    3.7      33.707
2013    6       24    20  50    3.62   491.2    3.7      33.684
2013    6       24    20  56    3.62   491.0    3.7      33.662
2013    6       24    21   2    3.62   490.8    3.7      33.640
2013    6       24    21   9    3.62   490.6    3.7      33.618
2013    6       24    21  15    3.62   490.4    3.7      33.595
2013    6       24    21  21    3.62   490.2    3.7      33.573
2013    6       24    21  28    3.61   490.0    3.7      33.550
2013    6       24    21  34    3.61   489.8    3.7      33.528
2013    6       24    21  40    3.61   489.6    3.7      33.505
2013    6       24    21  46    3.61   489.4    3.7      33.481
2013    6       24    21  53    3.61   489.2    3.8      33.458
2013    6       24    21  59    3.61   489.0    3.8      33.434
2013    6       24    22   5    3.61   488.8    3.8      33.410
2013    6       24    22  11    3.60   488.6    3.8      33.385
2013    6       24    22  18    3.60   488.4    3.8      33.360
2013    6       24    22  24    3.60   488.2    3.8      33.334
2013    6       24    22  30    3.60   488.0    3.8      33.308
2013    6       24    22  37    3.60   487.8    3.8      33.282
2013    6       24    22  43    3.60   487.6    3.8      33.255
2013    6       24    22  49    3.60   487.4    3.8      33.228
2013    6       24    22  55    3.59   487.2    3.8      33.200
2013    6       24    23   2    3.59   487.0    3.8      33.171
2013    6       24    23   8    3.59   486.8    3.8      33.142
2013    6       24    23  14    3.59   486.6    3.8      33.113
2013    6       24    23  20    3.59   486.4    3.8      33.084
2013    6       24    23  27    3.59   486.2    3.8      33.053
2013    6       24    23  33    3.58   486.0    3.8      33.023
2013    6       24    23  39    3.58   485.8    3.8      32.992
2013    6       24    23  46    3.58   485.6    3.8      32.961
2013    6       24    23  52    3.58   485.3    3.8      32.930
2013    6       24    23  58    3.58   485.1    3.8      32.899
2013    6       25     0   4    3.58   484.9    3.8      32.868
