year    month   day   hour  minute  B_enl V_enl   n_enl       T_enl
[year] [month] [day] [hour][minute] [nT]  [km/s]  [cm-3]      [kK]
2013    6        2     0   1    4.75   640.6    3.9      75.255
2013    6        2     0   7    4.74   641.0    3.9      75.102
2013    6        2     0  14    4.72   641.4    3.9      74.950
2013    6        2     0  20    4.71   641.7    3.9      74.797
2013    6        2     0  27    4.69   642.0    3.9      74.647
2013    6        2     0  33    4.68   642.4    3.9      74.498
2013    6        2     0  40    4.66   642.7    3.8      74.351
2013    6        2     0  46    4.65   643.0    3.8      74.205
2013    6        2     0  53    4.63   643.3    3.8      74.062
2013    6        2     1   0    4.62   643.5    3.8      73.921
2013    6        2     1   6    4.61   643.8    3.8      73.784
2013    6        2     1  13    4.59   644.1    3.8      73.649
2013    6        2     1  19    4.58   644.3    3.8      73.518
2013    6        2     1  26    4.57   644.6    3.7      73.390
2013    6        2     1  32    4.55   644.8    3.7      73.265
2013    6        2     1  39    4.54   645.1    3.7      73.142
2013    6        2     1  45    4.53   645.4    3.7      73.023
2013    6        2     1  52    4.52   645.6    3.7      72.905
2013    6        2     1  58    4.50   645.8    3.7      72.789
2013    6        2     2   5    4.49   646.1    3.7      72.674
2013    6        2     2  12    4.48   646.3    3.7      72.561
2013    6        2     2  18    4.47   646.5    3.6      72.449
2013    6        2     2  25    4.46   646.8    3.6      72.337
2013    6        2     2  31    4.44   647.0    3.6      72.226
2013    6        2     2  38    4.43   647.2    3.6      72.116
2013    6        2     2  44    4.42   647.4    3.6      72.007
2013    6        2     2  51    4.41   647.7    3.6      71.898
2013    6        2     2  57    4.40   647.9    3.6      71.788
2013    6        2     3   4    4.39   648.1    3.6      71.677
2013    6        2     3  10    4.38   648.3    3.6      71.565
2013    6        2     3  17    4.37   648.5    3.5      71.453
2013    6        2     3  24    4.35   648.7    3.5      71.341
2013    6        2     3  30    4.34   648.9    3.5      71.230
2013    6        2     3  37    4.33   649.1    3.5      71.119
2013    6        2     3  43    4.32   649.2    3.5      71.010
2013    6        2     3  50    4.31   649.4    3.5      70.902
2013    6        2     3  56    4.30   649.6    3.5      70.795
2013    6        2     4   3    4.29   649.7    3.5      70.688
2013    6        2     4   9    4.28   649.9    3.5      70.582
2013    6        2     4  16    4.27   650.1    3.5      70.476
2013    6        2     4  22    4.26   650.2    3.5      70.370
2013    6        2     4  29    4.25   650.3    3.4      70.264
2013    6        2     4  35    4.24   650.5    3.4      70.159
2013    6        2     4  42    4.24   650.6    3.4      70.054
2013    6        2     4  49    4.23   650.8    3.4      69.950
2013    6        2     4  55    4.22   650.9    3.4      69.845
2013    6        2     5   2    4.21   651.0    3.4      69.742
2013    6        2     5   8    4.20   651.2    3.4      69.638
2013    6        2     5  15    4.19   651.3    3.4      69.536
2013    6        2     5  21    4.18   651.4    3.4      69.435
2013    6        2     5  28    4.17   651.6    3.4      69.333
2013    6        2     5  34    4.16   651.7    3.4      69.231
2013    6        2     5  41    4.16   651.8    3.3      69.129
2013    6        2     5  48    4.15   651.9    3.3      69.027
2013    6        2     5  54    4.14   652.0    3.3      68.927
2013    6        2     6   1    4.13   652.1    3.3      68.827
2013    6        2     6   7    4.12   652.2    3.3      68.730
2013    6        2     6  14    4.11   652.3    3.3      68.634
2013    6        2     6  20    4.11   652.4    3.3      68.540
2013    6        2     6  27    4.10   652.5    3.3      68.448
2013    6        2     6  33    4.09   652.5    3.3      68.357
2013    6        2     6  40    4.08   652.6    3.3      68.267
2013    6        2     6  46    4.08   652.7    3.3      68.178
2013    6        2     6  53    4.07   652.8    3.3      68.089
2013    6        2     7   0    4.06   652.8    3.3      68.001
2013    6        2     7   6    4.05   652.9    3.3      67.915
2013    6        2     7  13    4.05   653.0    3.2      67.828
2013    6        2     7  19    4.04   653.1    3.2      67.740
2013    6        2     7  26    4.03   653.3    3.2      67.652
2013    6        2     7  32    4.02   653.4    3.2      67.562
2013    6        2     7  39    4.02   653.5    3.2      67.471
2013    6        2     7  45    4.01   653.6    3.2      67.380
2013    6        2     7  52    4.00   653.6    3.2      67.289
2013    6        2     7  59    3.99   653.7    3.2      67.199
2013    6        2     8   5    3.99   653.8    3.2      67.109
2013    6        2     8  12    3.98   653.9    3.2      67.021
2013    6        2     8  18    3.97   653.9    3.2      66.933
2013    6        2     8  25    3.97   654.0    3.2      66.847
2013    6        2     8  31    3.96   654.0    3.2      66.762
2013    6        2     8  38    3.95   654.1    3.2      66.677
2013    6        2     8  44    3.95   654.2    3.2      66.595
2013    6        2     8  51    3.94   654.2    3.2      66.514
2013    6        2     8  57    3.93   654.3    3.1      66.435
2013    6        2     9   4    3.93   654.4    3.1      66.356
2013    6        2     9  11    3.92   654.4    3.1      66.279
2013    6        2     9  17    3.92   654.5    3.1      66.202
2013    6        2     9  24    3.91   654.5    3.1      66.127
2013    6        2     9  30    3.90   654.6    3.1      66.052
2013    6        2     9  37    3.90   654.6    3.1      65.980
2013    6        2     9  43    3.89   654.7    3.1      65.908
2013    6        2     9  50    3.89   654.7    3.1      65.838
2013    6        2     9  56    3.88   654.7    3.1      65.770
2013    6        2    10   3    3.88   654.8    3.1      65.703
2013    6        2    10   9    3.87   654.8    3.1      65.637
2013    6        2    10  16    3.86   654.8    3.1      65.572
2013    6        2    10  22    3.86   654.9    3.1      65.507
2013    6        2    10  29    3.85   654.9    3.1      65.444
2013    6        2    10  36    3.85   654.9    3.1      65.379
2013    6        2    10  42    3.84   654.9    3.1      65.316
2013    6        2    10  49    3.84   654.9    3.1      65.253
2013    6        2    10  55    3.83   655.0    3.1      65.190
2013    6        2    11   2    3.83   655.0    3.1      65.128
2013    6        2    11   8    3.82   655.0    3.1      65.067
2013    6        2    11  15    3.82   655.0    3.1      65.006
2013    6        2    11  21    3.81   655.0    3.0      64.945
2013    6        2    11  28    3.81   655.0    3.0      64.885
2013    6        2    11  34    3.80   655.0    3.0      64.826
2013    6        2    11  41    3.80   655.0    3.0      64.766
2013    6        2    11  48    3.79   655.0    3.0      64.707
2013    6        2    11  54    3.79   655.0    3.0      64.648
2013    6        2    12   1    3.78   655.0    3.0      64.589
2013    6        2    12   7    3.78   655.0    3.0      64.529
2013    6        2    12  14    3.77   655.0    3.0      64.469
2013    6        2    12  20    3.77   655.0    3.0      64.409
2013    6        2    12  27    3.76   655.0    3.0      64.349
2013    6        2    12  33    3.76   655.0    3.0      64.289
2013    6        2    12  40    3.75   655.0    3.0      64.229
2013    6        2    12  46    3.75   655.0    3.0      64.169
2013    6        2    12  53    3.74   655.0    3.0      64.109
2013    6        2    13   0    3.74   655.0    3.0      64.049
2013    6        2    13   6    3.74   654.9    3.0      63.990
2013    6        2    13  13    3.73   654.9    3.0      63.930
2013    6        2    13  19    3.73   654.9    3.0      63.870
2013    6        2    13  26    3.72   654.9    3.0      63.811
2013    6        2    13  32    3.72   654.9    3.0      63.752
2013    6        2    13  39    3.71   654.8    3.0      63.693
2013    6        2    13  45    3.71   654.8    3.0      63.634
2013    6        2    13  52    3.70   654.8    3.0      63.575
2013    6        2    13  58    3.70   654.8    3.0      63.517
2013    6        2    14   5    3.70   654.7    3.0      63.458
2013    6        2    14  12    3.69   654.7    3.0      63.400
2013    6        2    14  18    3.69   654.7    3.0      63.341
2013    6        2    14  25    3.68   654.6    3.0      63.283
2013    6        2    14  31    3.68   654.6    3.0      63.225
2013    6        2    14  38    3.68   654.5    3.0      63.168
2013    6        2    14  44    3.67   654.5    2.9      63.110
2013    6        2    14  51    3.67   654.5    2.9      63.053
2013    6        2    14  57    3.66   654.4    2.9      62.996
2013    6        2    15   4    3.66   654.4    2.9      62.940
2013    6        2    15  11    3.66   654.3    2.9      62.883
2013    6        2    15  17    3.65   654.3    2.9      62.828
2013    6        2    15  24    3.65   654.2    2.9      62.772
2013    6        2    15  30    3.64   654.2    2.9      62.718
2013    6        2    15  37    3.64   654.1    2.9      62.663
2013    6        2    15  43    3.64   654.1    2.9      62.610
2013    6        2    15  50    3.63   654.0    2.9      62.556
2013    6        2    15  56    3.63   654.0    2.9      62.504
2013    6        2    16   3    3.63   653.9    2.9      62.452
2013    6        2    16   9    3.62   653.9    2.9      62.400
2013    6        2    16  16    3.62   653.8    2.9      62.349
2013    6        2    16  23    3.62   653.8    2.9      62.299
2013    6        2    16  29    3.61   653.7    2.9      62.250
2013    6        2    16  36    3.61   653.7    2.9      62.201
2013    6        2    16  42    3.61   653.6    2.9      62.152
2013    6        2    16  49    3.60   653.6    2.9      62.104
2013    6        2    16  55    3.60   653.5    2.9      62.056
2013    6        2    17   2    3.60   653.5    2.9      62.010
2013    6        2    17   8    3.59   653.4    2.9      61.963
2013    6        2    17  15    3.59   653.4    2.9      61.917
2013    6        2    17  21    3.59   653.3    2.9      61.872
2013    6        2    17  28    3.58   653.3    2.9      61.827
2013    6        2    17  35    3.58   653.2    2.9      61.782
2013    6        2    17  41    3.58   653.2    2.9      61.737
2013    6        2    17  48    3.57   653.1    2.9      61.693
2013    6        2    17  54    3.57   653.0    2.9      61.650
2013    6        2    18   1    3.57   653.0    2.9      61.606
2013    6        2    18   7    3.56   652.9    2.9      61.563
2013    6        2    18  14    3.56   652.9    2.9      61.520
2013    6        2    18  20    3.56   652.8    2.9      61.478
2013    6        2    18  27    3.55   652.7    2.9      61.436
2013    6        2    18  33    3.55   652.7    2.9      61.394
2013    6        2    18  40    3.55   652.6    2.9      61.353
2013    6        2    18  46    3.55   652.6    2.9      61.312
2013    6        2    18  53    3.54   652.5    2.9      61.270
2013    6        2    19   0    3.54   652.4    2.9      61.230
2013    6        2    19   6    3.54   652.4    2.9      61.189
2013    6        2    19  13    3.53   652.3    2.9      61.149
2013    6        2    19  19    3.53   652.2    2.9      61.109
2013    6        2    19  26    3.53   652.2    2.9      61.068
2013    6        2    19  32    3.53   652.1    2.9      61.028
2013    6        2    19  39    3.52   652.0    2.9      60.989
2013    6        2    19  45    3.52   651.9    2.9      60.949
2013    6        2    19  52    3.52   651.9    2.9      60.909
2013    6        2    19  58    3.51   651.8    2.9      60.869
2013    6        2    20   5    3.51   651.7    2.9      60.829
2013    6        2    20  12    3.51   651.7    2.8      60.789
2013    6        2    20  18    3.51   651.6    2.8      60.749
2013    6        2    20  25    3.50   651.5    2.8      60.708
2013    6        2    20  31    3.50   651.4    2.8      60.668
2013    6        2    20  38    3.50   651.4    2.8      60.627
2013    6        2    20  44    3.49   651.3    2.8      60.586
2013    6        2    20  51    3.49   651.2    2.8      60.545
2013    6        2    20  57    3.49   651.1    2.8      60.504
2013    6        2    21   4    3.49   651.0    2.8      60.463
2013    6        2    21  11    3.48   651.0    2.8      60.421
2013    6        2    21  17    3.48   650.9    2.8      60.380
2013    6        2    21  24    3.48   650.8    2.8      60.338
2013    6        2    21  30    3.48   650.7    2.8      60.296
2013    6        2    21  37    3.47   650.6    2.8      60.253
2013    6        2    21  43    3.47   650.5    2.8      60.211
2013    6        2    21  50    3.47   650.5    2.8      60.168
2013    6        2    21  56    3.47   650.4    2.8      60.125
2013    6        2    22   3    3.46   650.3    2.8      60.082
2013    6        2    22   9    3.46   650.2    2.8      60.039
2013    6        2    22  16    3.46   650.1    2.8      59.996
2013    6        2    22  23    3.46   650.0    2.8      59.953
2013    6        2    22  29    3.45   649.9    2.8      59.910
2013    6        2    22  36    3.45   649.8    2.8      59.866
2013    6        2    22  42    3.45   649.8    2.8      59.823
2013    6        2    22  49    3.45   649.7    2.8      59.779
2013    6        2    22  55    3.44   649.6    2.8      59.736
2013    6        2    23   2    3.44   649.5    2.8      59.693
2013    6        2    23   8    3.44   649.4    2.8      59.650
2013    6        2    23  15    3.44   649.3    2.8      59.607
2013    6        2    23  21    3.43   649.2    2.8      59.564
2013    6        2    23  28    3.43   649.1    2.8      59.522
2013    6        2    23  35    3.43   649.0    2.8      59.480
2013    6        2    23  41    3.43   648.9    2.8      59.437
2013    6        2    23  48    3.42   648.8    2.8      59.396
2013    6        2    23  54    3.42   648.7    2.8      59.354
2013    6        3     0   1    3.42   648.7    2.8      59.313
2013    6        3     0   7    3.42   648.6    2.8      59.272
2013    6        3     0  14    3.41   648.5    2.8      59.231
2013    6        3     0  20    3.41   648.4    2.8      59.191
2013    6        3     0  27    3.41   648.3    2.8      59.151
2013    6        3     0  33    3.41   648.2    2.8      59.111
2013    6        3     0  40    3.41   648.1    2.8      59.072
2013    6        3     0  47    3.40   648.0    2.8      59.033
2013    6        3     0  53    3.40   647.9    2.8      58.995
2013    6        3     1   0    3.40   647.8    2.8      58.957
2013    6        3     1   6    3.40   647.7    2.8      58.919
2013    6        3     1  13    3.39   647.6    2.8      58.882
2013    6        3     1  19    3.39   647.5    2.8      58.845
2013    6        3     1  26    3.39   647.4    2.8      58.808
2013    6        3     1  32    3.39   647.3    2.8      58.772
2013    6        3     1  39    3.39   647.2    2.8      58.736
2013    6        3     1  45    3.38   647.1    2.8      58.701
2013    6        3     1  52    3.38   647.0    2.8      58.666
2013    6        3     1  59    3.38   646.9    2.8      58.631
2013    6        3     2   5    3.38   646.8    2.8      58.596
2013    6        3     2  12    3.38   646.7    2.8      58.562
2013    6        3     2  18    3.37   646.6    2.8      58.528
2013    6        3     2  25    3.37   646.5    2.8      58.495
2013    6        3     2  31    3.37   646.4    2.8      58.462
2013    6        3     2  38    3.37   646.3    2.8      58.429
2013    6        3     2  44    3.36   646.2    2.8      58.396
2013    6        3     2  51    3.36   646.1    2.8      58.363
2013    6        3     2  57    3.36   646.0    2.8      58.331
2013    6        3     3   4    3.36   645.9    2.8      58.299
2013    6        3     3  11    3.36   645.8    2.8      58.267
2013    6        3     3  17    3.35   645.7    2.8      58.235
2013    6        3     3  24    3.35   645.6    2.8      58.203
2013    6        3     3  30    3.35   645.5    2.8      58.172
2013    6        3     3  37    3.35   645.3    2.8      58.140
2013    6        3     3  43    3.35   645.2    2.8      58.108
2013    6        3     3  50    3.34   645.1    2.8      58.076
2013    6        3     3  56    3.34   645.0    2.8      58.045
2013    6        3     4   3    3.34   644.9    2.8      58.013
2013    6        3     4   9    3.34   644.8    2.8      57.981
2013    6        3     4  16    3.34   644.7    2.8      57.948
2013    6        3     4  23    3.33   644.6    2.8      57.916
2013    6        3     4  29    3.33   644.5    2.8      57.883
2013    6        3     4  36    3.33   644.4    2.8      57.851
2013    6        3     4  42    3.33   644.3    2.8      57.818
2013    6        3     4  49    3.33   644.1    2.8      57.785
2013    6        3     4  55    3.33   644.0    2.8      57.751
2013    6        3     5   2    3.32   643.9    2.8      57.717
2013    6        3     5   8    3.32   643.8    2.8      57.683
2013    6        3     5  15    3.32   643.7    2.8      57.649
2013    6        3     5  22    3.32   643.6    2.8      57.614
2013    6        3     5  28    3.32   643.5    2.8      57.579
2013    6        3     5  35    3.31   643.3    2.8      57.544
2013    6        3     5  41    3.31   643.2    2.8      57.508
2013    6        3     5  48    3.31   643.1    2.8      57.472
2013    6        3     5  54    3.31   643.0    2.8      57.436
2013    6        3     6   1    3.31   642.9    2.8      57.400
2013    6        3     6   7    3.30   642.8    2.8      57.364
2013    6        3     6  14    3.30   642.6    2.8      57.327
2013    6        3     6  20    3.30   642.5    2.8      57.290
2013    6        3     6  27    3.30   642.4    2.8      57.253
2013    6        3     6  34    3.30   642.3    2.8      57.217
2013    6        3     6  40    3.30   642.2    2.8      57.179
2013    6        3     6  47    3.29   642.1    2.8      57.143
2013    6        3     6  53    3.29   641.9    2.8      57.105
2013    6        3     7   0    3.29   641.8    2.8      57.068
2013    6        3     7   6    3.29   641.7    2.8      57.031
2013    6        3     7  13    3.29   641.6    2.8      56.995
2013    6        3     7  19    3.28   641.5    2.8      56.958
2013    6        3     7  26    3.28   641.3    2.8      56.921
2013    6        3     7  32    3.28   641.2    2.8      56.884
2013    6        3     7  39    3.28   641.1    2.8      56.848
2013    6        3     7  46    3.28   641.0    2.8      56.812
2013    6        3     7  52    3.28   640.8    2.8      56.776
2013    6        3     7  59    3.27   640.7    2.8      56.741
2013    6        3     8   5    3.27   640.6    2.8      56.705
2013    6        3     8  12    3.27   640.5    2.8      56.670
2013    6        3     8  18    3.27   640.4    2.8      56.636
2013    6        3     8  25    3.27   640.2    2.8      56.601
2013    6        3     8  31    3.26   640.1    2.8      56.567
2013    6        3     8  38    3.26   640.0    2.8      56.533
2013    6        3     8  44    3.26   639.9    2.8      56.500
2013    6        3     8  51    3.26   639.7    2.8      56.467
2013    6        3     8  57    3.26   639.6    2.8      56.434
2013    6        3     9   4    3.26   639.5    2.8      56.401
2013    6        3     9  11    3.25   639.4    2.8      56.369
2013    6        3     9  17    3.25   639.3    2.8      56.336
2013    6        3     9  24    3.25   639.1    2.8      56.304
2013    6        3     9  30    3.25   639.0    2.8      56.272
2013    6        3     9  37    3.25   638.9    2.8      56.240
2013    6        3     9  43    3.25   638.8    2.8      56.207
2013    6        3     9  50    3.24   638.6    2.8      56.176
2013    6        3     9  56    3.24   638.5    2.8      56.143
2013    6        3    10   3    3.24   638.4    2.8      56.111
2013    6        3    10   9    3.24   638.3    2.8      56.079
2013    6        3    10  16    3.24   638.1    2.8      56.047
2013    6        3    10  22    3.24   638.0    2.8      56.015
2013    6        3    10  29    3.23   637.9    2.8      55.983
2013    6        3    10  36    3.23   637.8    2.8      55.950
2013    6        3    10  42    3.23   637.6    2.8      55.918
2013    6        3    10  49    3.23   637.5    2.8      55.885
2013    6        3    10  55    3.23   637.4    2.8      55.853
2013    6        3    11   2    3.23   637.3    2.8      55.820
2013    6        3    11   8    3.22   637.1    2.8      55.787
2013    6        3    11  15    3.22   637.0    2.8      55.754
2013    6        3    11  21    3.22   636.9    2.8      55.720
2013    6        3    11  28    3.22   636.8    2.8      55.687
2013    6        3    11  34    3.22   636.6    2.8      55.653
2013    6        3    11  41    3.22   636.5    2.8      55.619
2013    6        3    11  47    3.21   636.4    2.8      55.585
2013    6        3    11  54    3.21   636.3    2.8      55.551
2013    6        3    12   1    3.21   636.1    2.8      55.516
2013    6        3    12   7    3.21   636.0    2.8      55.482
2013    6        3    12  14    3.21   635.9    2.8      55.447
2013    6        3    12  20    3.21   635.7    2.8      55.412
2013    6        3    12  27    3.20   635.6    2.8      55.377
2013    6        3    12  33    3.20   635.5    2.8      55.342
2013    6        3    12  40    3.20   635.3    2.8      55.307
2013    6        3    12  46    3.20   635.2    2.8      55.272
2013    6        3    12  53    3.20   635.1    2.8      55.237
2013    6        3    12  59    3.20   635.0    2.8      55.202
2013    6        3    13   6    3.19   634.8    2.8      55.166
2013    6        3    13  12    3.19   634.7    2.8      55.131
2013    6        3    13  19    3.19   634.6    2.8      55.096
2013    6        3    13  25    3.19   634.4    2.8      55.061
2013    6        3    13  32    3.19   634.3    2.8      55.027
2013    6        3    13  39    3.19   634.2    2.8      54.992
2013    6        3    13  45    3.18   634.0    2.8      54.957
2013    6        3    13  52    3.18   633.9    2.8      54.922
2013    6        3    13  58    3.18   633.8    2.8      54.888
2013    6        3    14   5    3.18   633.6    2.8      54.854
2013    6        3    14  11    3.18   633.5    2.8      54.820
2013    6        3    14  18    3.18   633.4    2.8      54.786
2013    6        3    14  24    3.17   633.2    2.8      54.752
2013    6        3    14  31    3.17   633.1    2.8      54.718
2013    6        3    14  37    3.17   632.9    2.8      54.684
2013    6        3    14  44    3.17   632.8    2.8      54.651
2013    6        3    14  50    3.17   632.7    2.8      54.618
2013    6        3    14  57    3.17   632.5    2.8      54.585
2013    6        3    15   3    3.17   632.4    2.8      54.552
2013    6        3    15  10    3.16   632.3    2.8      54.519
2013    6        3    15  17    3.16   632.1    2.8      54.487
2013    6        3    15  23    3.16   632.0    2.8      54.455
2013    6        3    15  30    3.16   631.9    2.8      54.423
2013    6        3    15  36    3.16   631.7    2.8      54.391
2013    6        3    15  43    3.16   631.6    2.8      54.360
2013    6        3    15  49    3.15   631.4    2.8      54.329
2013    6        3    15  56    3.15   631.3    2.8      54.298
2013    6        3    16   2    3.15   631.2    2.8      54.267
2013    6        3    16   9    3.15   631.0    2.8      54.236
2013    6        3    16  15    3.15   630.9    2.8      54.205
2013    6        3    16  22    3.15   630.7    2.8      54.175
2013    6        3    16  28    3.15   630.6    2.8      54.144
2013    6        3    16  35    3.14   630.5    2.8      54.113
2013    6        3    16  42    3.14   630.3    2.8      54.082
2013    6        3    16  48    3.14   630.2    2.8      54.052
2013    6        3    16  55    3.14   630.0    2.8      54.020
2013    6        3    17   1    3.14   629.9    2.8      53.989
2013    6        3    17   8    3.14   629.8    2.8      53.957
2013    6        3    17  14    3.14   629.6    2.8      53.926
2013    6        3    17  21    3.13   629.5    2.8      53.893
2013    6        3    17  27    3.13   629.3    2.8      53.861
2013    6        3    17  34    3.13   629.2    2.8      53.828
2013    6        3    17  40    3.13   629.1    2.8      53.795
2013    6        3    17  47    3.13   628.9    2.8      53.761
2013    6        3    17  53    3.13   628.8    2.8      53.727
2013    6        3    18   0    3.12   628.6    2.8      53.693
2013    6        3    18   7    3.12   628.5    2.8      53.658
2013    6        3    18  13    3.12   628.4    2.8      53.623
2013    6        3    18  20    3.12   628.2    2.8      53.588
2013    6        3    18  26    3.12   628.1    2.8      53.553
2013    6        3    18  33    3.12   627.9    2.8      53.517
2013    6        3    18  39    3.12   627.8    2.8      53.480
2013    6        3    18  46    3.11   627.6    2.8      53.444
2013    6        3    18  52    3.11   627.5    2.8      53.407
2013    6        3    18  59    3.11   627.4    2.8      53.370
2013    6        3    19   5    3.11   627.2    2.8      53.333
2013    6        3    19  12    3.11   627.1    2.8      53.296
2013    6        3    19  18    3.11   626.9    2.8      53.258
2013    6        3    19  25    3.11   626.8    2.8      53.220
2013    6        3    19  32    3.10   626.6    2.8      53.183
2013    6        3    19  38    3.10   626.5    2.8      53.145
2013    6        3    19  45    3.10   626.3    2.8      53.107
2013    6        3    19  51    3.10   626.2    2.8      53.070
2013    6        3    19  58    3.10   626.0    2.8      53.032
2013    6        3    20   4    3.10   625.9    2.8      52.994
2013    6        3    20  11    3.09   625.7    2.8      52.957
2013    6        3    20  17    3.09   625.6    2.8      52.920
2013    6        3    20  24    3.09   625.4    2.8      52.882
2013    6        3    20  30    3.09   625.3    2.8      52.846
2013    6        3    20  37    3.09   625.1    2.8      52.809
2013    6        3    20  43    3.09   625.0    2.8      52.773
2013    6        3    20  50    3.09   624.8    2.8      52.737
2013    6        3    20  57    3.09   624.7    2.8      52.701
2013    6        3    21   3    3.08   624.5    2.8      52.666
2013    6        3    21  10    3.08   624.3    2.8      52.631
2013    6        3    21  16    3.08   624.2    2.8      52.597
2013    6        3    21  23    3.08   624.0    2.8      52.562
2013    6        3    21  29    3.08   623.9    2.8      52.528
2013    6        3    21  36    3.08   623.7    2.8      52.495
2013    6        3    21  42    3.08   623.6    2.8      52.462
2013    6        3    21  49    3.07   623.4    2.8      52.429
2013    6        3    21  55    3.07   623.2    2.8      52.396
2013    6        3    22   2    3.07   623.1    2.8      52.364
2013    6        3    22   9    3.07   622.9    2.8      52.331
2013    6        3    22  15    3.07   622.8    2.8      52.299
2013    6        3    22  22    3.07   622.6    2.8      52.267
2013    6        3    22  28    3.07   622.4    2.8      52.235
2013    6        3    22  35    3.07   622.3    2.8      52.203
2013    6        3    22  41    3.06   622.1    2.8      52.171
2013    6        3    22  48    3.06   622.0    2.8      52.139
2013    6        3    22  54    3.06   621.8    2.8      52.107
2013    6        3    23   1    3.06   621.6    2.8      52.076
2013    6        3    23   7    3.06   621.5    2.8      52.044
2013    6        3    23  14    3.06   621.3    2.8      52.012
2013    6        3    23  20    3.06   621.1    2.8      51.980
2013    6        3    23  27    3.06   621.0    2.8      51.949
2013    6        3    23  34    3.05   620.8    2.8      51.917
2013    6        3    23  40    3.05   620.6    2.8      51.886
2013    6        3    23  47    3.05   620.5    2.8      51.855
2013    6        3    23  53    3.05   620.3    2.8      51.824
2013    6        4     0   0    3.05   620.1    2.8      51.793
2013    6        4     0   6    3.05   620.0    2.8      51.761
2013    6        4     0  13    3.05   619.8    2.8      51.731
2013    6        4     0  19    3.05   619.6    2.8      51.700
2013    6        4     0  26    3.05   619.4    2.8      51.669
2013    6        4     0  32    3.04   619.3    2.8      51.638
2013    6        4     0  39    3.04   619.1    2.8      51.608
2013    6        4     0  46    3.04   618.9    2.8      51.577
2013    6        4     0  52    3.04   618.8    2.8      51.547
2013    6        4     0  59    3.04   618.6    2.8      51.516
2013    6        4     1   5    3.04   618.4    2.8      51.486
2013    6        4     1  12    3.04   618.3    2.8      51.456
2013    6        4     1  18    3.04   618.1    2.8      51.425
2013    6        4     1  25    3.04   617.9    2.8      51.395
2013    6        4     1  31    3.03   617.8    2.8      51.365
2013    6        4     1  38    3.03   617.6    2.8      51.335
2013    6        4     1  44    3.03   617.4    2.8      51.305
2013    6        4     1  51    3.03   617.2    2.8      51.275
2013    6        4     1  57    3.03   617.1    2.8      51.245
2013    6        4     2   4    3.03   616.9    2.8      51.215
2013    6        4     2  11    3.03   616.7    2.8      51.186
2013    6        4     2  17    3.03   616.5    2.8      51.156
2013    6        4     2  24    3.03   616.4    2.8      51.126
2013    6        4     2  30    3.02   616.2    2.8      51.097
2013    6        4     2  37    3.02   616.0    2.8      51.067
2013    6        4     2  43    3.02   615.9    2.8      51.037
2013    6        4     2  50    3.02   615.7    2.8      51.008
2013    6        4     2  56    3.02   615.5    2.8      50.978
2013    6        4     3   3    3.02   615.3    2.8      50.948
2013    6        4     3   9    3.02   615.2    2.8      50.918
2013    6        4     3  16    3.02   615.0    2.8      50.888
2013    6        4     3  22    3.02   614.8    2.8      50.858
2013    6        4     3  29    3.02   614.6    2.8      50.828
2013    6        4     3  36    3.01   614.4    2.8      50.797
2013    6        4     3  42    3.01   614.3    2.8      50.767
2013    6        4     3  49    3.01   614.1    2.8      50.736
2013    6        4     3  55    3.01   613.9    2.8      50.706
2013    6        4     4   2    3.01   613.7    2.8      50.675
2013    6        4     4   8    3.01   613.5    2.8      50.644
2013    6        4     4  15    3.01   613.4    2.8      50.613
2013    6        4     4  21    3.01   613.2    2.8      50.582
2013    6        4     4  28    3.01   613.0    2.8      50.551
2013    6        4     4  34    3.01   612.8    2.8      50.520
2013    6        4     4  41    3.00   612.6    2.8      50.489
2013    6        4     4  47    3.00   612.4    2.8      50.458
2013    6        4     4  54    3.00   612.2    2.8      50.427
2013    6        4     5   1    3.00   612.1    2.8      50.396
2013    6        4     5   7    3.00   611.9    2.8      50.364
2013    6        4     5  14    3.00   611.7    2.8      50.333
2013    6        4     5  20    3.00   611.5    2.8      50.302
2013    6        4     5  27    3.00   611.3    2.8      50.271
2013    6        4     5  33    3.00   611.1    2.8      50.239
2013    6        4     5  40    3.00   611.0    2.8      50.208
2013    6        4     5  46    3.00   610.8    2.8      50.176
2013    6        4     5  53    3.00   610.6    2.8      50.144
2013    6        4     5  59    2.99   610.4    2.8      50.113
2013    6        4     6   6    2.99   610.2    2.8      50.081
2013    6        4     6  12    2.99   610.0    2.8      50.049
2013    6        4     6  19    2.99   609.8    2.8      50.018
2013    6        4     6  26    2.99   609.6    2.8      49.987
2013    6        4     6  32    2.99   609.4    2.8      49.956
2013    6        4     6  39    2.99   609.2    2.8      49.925
2013    6        4     6  45    2.99   609.0    2.8      49.895
2013    6        4     6  52    2.99   608.8    2.8      49.865
2013    6        4     6  58    2.99   608.7    2.8      49.835
2013    6        4     7   5    2.99   608.5    2.8      49.806
2013    6        4     7  11    2.99   608.3    2.8      49.777
2013    6        4     7  18    2.99   608.1    2.8      49.749
2013    6        4     7  24    2.99   607.9    2.8      49.721
2013    6        4     7  31    2.99   607.7    2.8      49.693
2013    6        4     7  37    2.98   607.5    2.8      49.666
2013    6        4     7  44    2.98   607.3    2.8      49.639
2013    6        4     7  51    2.98   607.1    2.8      49.613
2013    6        4     7  57    2.98   607.0    2.8      49.587
2013    6        4     8   4    2.98   606.8    2.8      49.561
2013    6        4     8  10    2.98   606.6    2.8      49.535
2013    6        4     8  17    2.98   606.4    2.8      49.509
2013    6        4     8  23    2.98   606.2    2.8      49.484
2013    6        4     8  30    2.98   606.0    2.8      49.459
2013    6        4     8  36    2.98   605.8    2.8      49.433
2013    6        4     8  43    2.98   605.6    2.8      49.409
2013    6        4     8  49    2.98   605.4    2.8      49.384
2013    6        4     8  56    2.98   605.3    2.8      49.360
2013    6        4     9   3    2.98   605.1    2.9      49.335
2013    6        4     9   9    2.98   604.9    2.9      49.311
2013    6        4     9  16    2.98   604.7    2.9      49.287
2013    6        4     9  22    2.98   604.5    2.9      49.263
2013    6        4     9  29    2.97   604.3    2.9      49.239
2013    6        4     9  35    2.97   604.1    2.9      49.216
2013    6        4     9  42    2.97   604.0    2.9      49.192
2013    6        4     9  48    2.97   603.8    2.9      49.169
2013    6        4     9  55    2.97   603.6    2.9      49.145
2013    6        4    10   1    2.97   603.4    2.9      49.122
2013    6        4    10   8    2.97   603.2    2.9      49.099
2013    6        4    10  14    2.97   603.0    2.9      49.076
2013    6        4    10  21    2.97   602.8    2.9      49.053
2013    6        4    10  27    2.97   602.7    2.9      49.030
2013    6        4    10  34    2.97   602.5    2.9      49.007
2013    6        4    10  41    2.97   602.3    2.9      48.985
2013    6        4    10  47    2.97   602.1    2.9      48.961
2013    6        4    10  54    2.97   601.9    2.9      48.938
2013    6        4    11   0    2.97   601.7    2.9      48.915
2013    6        4    11   7    2.97   601.5    2.9      48.892
2013    6        4    11  13    2.97   601.4    2.9      48.868
2013    6        4    11  20    2.97   601.2    2.9      48.844
2013    6        4    11  26    2.97   601.0    2.9      48.820
2013    6        4    11  33    2.97   600.8    2.9      48.796
2013    6        4    11  39    2.97   600.6    2.9      48.771
2013    6        4    11  46    2.97   600.4    2.9      48.747
2013    6        4    11  52    2.97   600.2    2.9      48.721
2013    6        4    11  59    2.96   600.1    2.9      48.696
2013    6        4    12   6    2.96   599.9    2.9      48.670
2013    6        4    12  12    2.96   599.7    2.9      48.645
2013    6        4    12  19    2.96   599.5    2.9      48.618
2013    6        4    12  25    2.96   599.3    2.9      48.592
2013    6        4    12  32    2.96   599.1    2.9      48.565
2013    6        4    12  38    2.96   598.9    2.9      48.538
2013    6        4    12  45    2.96   598.8    2.9      48.511
2013    6        4    12  51    2.96   598.6    2.9      48.484
2013    6        4    12  58    2.96   598.4    2.9      48.456
2013    6        4    13   4    2.96   598.2    2.9      48.429
2013    6        4    13  11    2.96   598.0    2.9      48.402
2013    6        4    13  17    2.96   597.8    2.9      48.375
2013    6        4    13  24    2.96   597.6    2.9      48.347
2013    6        4    13  31    2.96   597.5    2.9      48.320
2013    6        4    13  37    2.96   597.3    2.9      48.293
2013    6        4    13  44    2.96   597.1    2.9      48.267
2013    6        4    13  50    2.96   596.9    2.9      48.240
2013    6        4    13  57    2.96   596.7    2.9      48.214
2013    6        4    14   3    2.96   596.5    2.9      48.189
2013    6        4    14  10    2.96   596.3    2.9      48.163
2013    6        4    14  16    2.96   596.2    2.9      48.138
2013    6        4    14  23    2.96   596.0    2.9      48.113
2013    6        4    14  29    2.96   595.8    2.9      48.089
2013    6        4    14  36    2.96   595.6    2.9      48.065
2013    6        4    14  43    2.96   595.4    2.9      48.041
2013    6        4    14  49    2.96   595.3    2.9      48.017
2013    6        4    14  56    2.96   595.1    2.9      47.993
2013    6        4    15   2    2.96   594.9    2.9      47.970
2013    6        4    15   9    2.96   594.7    2.9      47.947
2013    6        4    15  15    2.96   594.5    2.9      47.924
2013    6        4    15  22    2.96   594.4    2.9      47.900
2013    6        4    15  28    2.96   594.2    2.9      47.877
2013    6        4    15  35    2.96   594.0    2.9      47.854
2013    6        4    15  41    2.96   593.8    2.9      47.831
2013    6        4    15  48    2.96   593.6    2.9      47.808
2013    6        4    15  54    2.96   593.5    2.9      47.785
2013    6        4    16   1    2.96   593.3    3.0      47.762
2013    6        4    16   8    2.95   593.1    3.0      47.739
2013    6        4    16  14    2.95   592.9    3.0      47.715
2013    6        4    16  21    2.95   592.8    3.0      47.692
2013    6        4    16  27    2.95   592.6    3.0      47.669
2013    6        4    16  34    2.95   592.4    3.0      47.645
2013    6        4    16  40    2.95   592.2    3.0      47.622
2013    6        4    16  47    2.95   592.1    3.0      47.598
2013    6        4    16  53    2.95   591.9    3.0      47.575
2013    6        4    17   0    2.95   591.7    3.0      47.551
2013    6        4    17   6    2.95   591.5    3.0      47.528
2013    6        4    17  13    2.95   591.3    3.0      47.505
2013    6        4    17  19    2.95   591.2    3.0      47.481
2013    6        4    17  26    2.95   591.0    3.0      47.458
2013    6        4    17  33    2.95   590.8    3.0      47.435
2013    6        4    17  39    2.95   590.6    3.0      47.412
2013    6        4    17  46    2.95   590.5    3.0      47.389
2013    6        4    17  52    2.95   590.3    3.0      47.366
2013    6        4    17  59    2.95   590.1    3.0      47.344
2013    6        4    18   5    2.95   589.9    3.0      47.321
2013    6        4    18  12    2.95   589.8    3.0      47.299
2013    6        4    18  18    2.95   589.6    3.0      47.277
2013    6        4    18  25    2.95   589.4    3.0      47.254
2013    6        4    18  31    2.95   589.2    3.0      47.232
2013    6        4    18  38    2.95   589.1    3.0      47.210
2013    6        4    18  44    2.95   588.9    3.0      47.188
2013    6        4    18  51    2.95   588.7    3.0      47.166
2013    6        4    18  58    2.95   588.5    3.0      47.144
2013    6        4    19   4    2.95   588.4    3.0      47.123
2013    6        4    19  11    2.95   588.2    3.0      47.101
2013    6        4    19  17    2.95   588.0    3.0      47.079
2013    6        4    19  24    2.95   587.9    3.0      47.058
2013    6        4    19  30    2.95   587.7    3.0      47.036
2013    6        4    19  37    2.95   587.5    3.0      47.015
2013    6        4    19  43    2.95   587.3    3.0      46.994
2013    6        4    19  50    2.95   587.2    3.0      46.972
2013    6        4    19  56    2.95   587.0    3.0      46.951
2013    6        4    20   3    2.95   586.8    3.0      46.930
2013    6        4    20   9    2.95   586.7    3.0      46.909
2013    6        4    20  16    2.95   586.5    3.0      46.888
2013    6        4    20  23    2.95   586.3    3.0      46.866
2013    6        4    20  29    2.95   586.1    3.0      46.846
2013    6        4    20  36    2.95   586.0    3.0      46.825
2013    6        4    20  42    2.95   585.8    3.0      46.804
2013    6        4    20  49    2.95   585.6    3.0      46.783
2013    6        4    20  55    2.95   585.5    3.0      46.762
2013    6        4    21   2    2.95   585.3    3.0      46.741
2013    6        4    21   8    2.95   585.1    3.0      46.720
2013    6        4    21  15    2.95   584.9    3.0      46.700
2013    6        4    21  21    2.95   584.8    3.0      46.679
2013    6        4    21  28    2.95   584.6    3.0      46.658
2013    6        4    21  34    2.95   584.4    3.0      46.637
2013    6        4    21  41    2.95   584.3    3.0      46.616
2013    6        4    21  48    2.95   584.1    3.0      46.596
2013    6        4    21  54    2.95   583.9    3.0      46.575
2013    6        4    22   1    2.95   583.8    3.0      46.554
2013    6        4    22   7    2.95   583.6    3.0      46.533
2013    6        4    22  14    2.95   583.4    3.0      46.512
2013    6        4    22  20    2.95   583.3    3.0      46.491
2013    6        4    22  27    2.95   583.1    3.0      46.470
2013    6        4    22  33    2.95   582.9    3.0      46.448
2013    6        4    22  40    2.95   582.8    3.0      46.427
2013    6        4    22  46    2.95   582.6    3.0      46.405
2013    6        4    22  53    2.95   582.4    3.0      46.384
2013    6        4    22  59    2.95   582.3    3.0      46.362
2013    6        4    23   6    2.95   582.1    3.0      46.340
2013    6        4    23  13    2.95   581.9    3.1      46.318
2013    6        4    23  19    2.95   581.8    3.1      46.296
2013    6        4    23  26    2.95   581.6    3.1      46.274
2013    6        4    23  32    2.95   581.4    3.1      46.252
2013    6        4    23  39    2.95   581.3    3.1      46.230
2013    6        4    23  45    2.95   581.1    3.1      46.208
2013    6        4    23  52    2.95   580.9    3.1      46.185
2013    6        4    23  58    2.95   580.8    3.1      46.163
2013    6        5     0   5    2.95   580.6    3.1      46.141
2013    6        5     0  11    2.95   580.4    3.1      46.119
2013    6        5     0  18    2.95   580.3    3.1      46.097
2013    6        5     0  24    2.95   580.1    3.1      46.076
2013    6        5     0  31    2.95   579.9    3.1      46.054
2013    6        5     0  38    2.95   579.8    3.1      46.033
2013    6        5     0  44    2.95   579.6    3.1      46.012
2013    6        5     0  51    2.95   579.4    3.1      45.991
2013    6        5     0  57    2.95   579.3    3.1      45.970
2013    6        5     1   4    2.95   579.1    3.1      45.950
2013    6        5     1  10    2.95   578.9    3.1      45.929
2013    6        5     1  17    2.95   578.8    3.1      45.909
2013    6        5     1  23    2.95   578.6    3.1      45.889
2013    6        5     1  30    2.95   578.4    3.1      45.870
2013    6        5     1  36    2.95   578.3    3.1      45.851
2013    6        5     1  43    2.95   578.1    3.1      45.832
2013    6        5     1  49    2.95   578.0    3.1      45.813
2013    6        5     1  56    2.95   577.8    3.1      45.794
2013    6        5     2   3    2.95   577.6    3.1      45.776
2013    6        5     2   9    2.95   577.5    3.1      45.757
2013    6        5     2  16    2.95   577.3    3.1      45.739
2013    6        5     2  22    2.95   577.1    3.1      45.721
2013    6        5     2  29    2.95   577.0    3.1      45.703
2013    6        5     2  35    2.95   576.8    3.1      45.686
2013    6        5     2  42    2.95   576.7    3.1      45.668
2013    6        5     2  48    2.95   576.5    3.1      45.650
2013    6        5     2  55    2.94   576.3    3.1      45.632
2013    6        5     3   1    2.94   576.2    3.1      45.615
2013    6        5     3   8    2.94   576.0    3.1      45.597
2013    6        5     3  14    2.94   575.9    3.1      45.580
2013    6        5     3  21    2.94   575.7    3.1      45.562
2013    6        5     3  28    2.94   575.5    3.1      45.545
2013    6        5     3  34    2.94   575.4    3.1      45.527
2013    6        5     3  41    2.94   575.2    3.1      45.509
2013    6        5     3  47    2.94   575.1    3.1      45.491
2013    6        5     3  54    2.94   574.9    3.1      45.474
2013    6        5     4   0    2.94   574.7    3.1      45.456
2013    6        5     4   7    2.94   574.6    3.1      45.438
2013    6        5     4  13    2.94   574.4    3.1      45.420
2013    6        5     4  20    2.94   574.3    3.1      45.403
2013    6        5     4  26    2.94   574.1    3.1      45.385
2013    6        5     4  33    2.94   573.9    3.1      45.367
2013    6        5     4  39    2.94   573.8    3.1      45.349
2013    6        5     4  46    2.94   573.6    3.1      45.331
2013    6        5     4  53    2.94   573.5    3.1      45.314
2013    6        5     4  59    2.94   573.3    3.1      45.296
2013    6        5     5   6    2.94   573.1    3.1      45.278
2013    6        5     5  12    2.94   573.0    3.1      45.261
2013    6        5     5  19    2.94   572.8    3.1      45.243
2013    6        5     5  25    2.94   572.7    3.1      45.225
2013    6        5     5  32    2.94   572.5    3.1      45.207
2013    6        5     5  38    2.94   572.4    3.1      45.190
2013    6        5     5  45    2.94   572.2    3.1      45.172
2013    6        5     5  51    2.94   572.0    3.1      45.155
2013    6        5     5  58    2.94   571.9    3.1      45.137
2013    6        5     6   4    2.94   571.7    3.1      45.119
2013    6        5     6  11    2.94   571.6    3.1      45.101
2013    6        5     6  18    2.94   571.4    3.1      45.083
2013    6        5     6  24    2.94   571.3    3.1      45.065
2013    6        5     6  31    2.94   571.1    3.2      45.047
2013    6        5     6  37    2.94   570.9    3.2      45.029
2013    6        5     6  44    2.94   570.8    3.2      45.011
2013    6        5     6  50    2.94   570.6    3.2      44.992
2013    6        5     6  57    2.94   570.5    3.2      44.974
2013    6        5     7   3    2.94   570.3    3.2      44.955
2013    6        5     7  10    2.94   570.2    3.2      44.937
2013    6        5     7  16    2.94   570.0    3.2      44.918
2013    6        5     7  23    2.94   569.9    3.2      44.900
2013    6        5     7  29    2.94   569.7    3.2      44.881
2013    6        5     7  36    2.94   569.5    3.2      44.863
2013    6        5     7  43    2.94   569.4    3.2      44.844
2013    6        5     7  49    2.94   569.2    3.2      44.826
2013    6        5     7  56    2.94   569.1    3.2      44.808
2013    6        5     8   2    2.94   568.9    3.2      44.790
2013    6        5     8   9    2.94   568.8    3.2      44.772
2013    6        5     8  15    2.94   568.6    3.2      44.754
2013    6        5     8  22    2.94   568.5    3.2      44.736
2013    6        5     8  28    2.94   568.3    3.2      44.719
2013    6        5     8  35    2.94   568.2    3.2      44.701
2013    6        5     8  41    2.94   568.0    3.2      44.685
2013    6        5     8  48    2.94   567.9    3.2      44.668
2013    6        5     8  54    2.94   567.7    3.2      44.651
2013    6        5     9   1    2.94   567.6    3.2      44.634
2013    6        5     9   7    2.94   567.4    3.2      44.618
2013    6        5     9  14    2.94   567.3    3.2      44.602
2013    6        5     9  21    2.94   567.1    3.2      44.586
2013    6        5     9  27    2.94   567.0    3.2      44.570
2013    6        5     9  34    2.94   566.8    3.2      44.554
2013    6        5     9  40    2.94   566.7    3.2      44.539
2013    6        5     9  47    2.94   566.5    3.2      44.523
2013    6        5     9  53    2.94   566.4    3.2      44.508
2013    6        5    10   0    2.94   566.2    3.2      44.492
2013    6        5    10   6    2.94   566.1    3.2      44.476
2013    6        5    10  13    2.94   565.9    3.2      44.461
2013    6        5    10  19    2.94   565.8    3.2      44.445
2013    6        5    10  26    2.94   565.6    3.2      44.430
2013    6        5    10  32    2.94   565.5    3.2      44.414
2013    6        5    10  39    2.94   565.3    3.2      44.399
2013    6        5    10  46    2.93   565.2    3.2      44.383
2013    6        5    10  52    2.93   565.0    3.2      44.367
2013    6        5    10  59    2.93   564.9    3.2      44.351
2013    6        5    11   5    2.93   564.7    3.2      44.336
2013    6        5    11  12    2.93   564.6    3.2      44.320
2013    6        5    11  18    2.93   564.4    3.2      44.304
2013    6        5    11  25    2.93   564.3    3.2      44.288
2013    6        5    11  31    2.93   564.1    3.2      44.272
2013    6        5    11  38    2.93   564.0    3.2      44.256
2013    6        5    11  44    2.93   563.9    3.2      44.241
2013    6        5    11  51    2.93   563.7    3.2      44.225
2013    6        5    11  57    2.93   563.6    3.2      44.209
2013    6        5    12   4    2.93   563.4    3.2      44.194
2013    6        5    12  11    2.93   563.3    3.2      44.178
2013    6        5    12  17    2.93   563.1    3.2      44.163
2013    6        5    12  24    2.93   563.0    3.2      44.148
2013    6        5    12  30    2.93   562.8    3.2      44.132
2013    6        5    12  37    2.93   562.7    3.2      44.118
2013    6        5    12  43    2.93   562.5    3.2      44.103
2013    6        5    12  50    2.93   562.4    3.2      44.088
2013    6        5    12  56    2.93   562.2    3.2      44.073
2013    6        5    13   3    2.93   562.1    3.2      44.059
2013    6        5    13   9    2.93   561.9    3.2      44.044
2013    6        5    13  16    2.93   561.8    3.2      44.030
2013    6        5    13  23    2.93   561.7    3.2      44.015
2013    6        5    13  29    2.93   561.5    3.2      44.001
2013    6        5    13  36    2.93   561.4    3.2      43.986
2013    6        5    13  42    2.93   561.2    3.3      43.972
2013    6        5    13  49    2.93   561.1    3.3      43.957
2013    6        5    13  55    2.93   560.9    3.3      43.943
2013    6        5    14   2    2.93   560.8    3.3      43.928
2013    6        5    14   8    2.93   560.7    3.3      43.913
2013    6        5    14  15    2.93   560.5    3.3      43.898
2013    6        5    14  21    2.93   560.4    3.3      43.883
2013    6        5    14  28    2.93   560.2    3.3      43.868
2013    6        5    14  34    2.93   560.1    3.3      43.853
2013    6        5    14  41    2.93   560.0    3.3      43.837
2013    6        5    14  47    2.93   559.8    3.3      43.822
2013    6        5    14  54    2.93   559.7    3.3      43.806
2013    6        5    15   1    2.93   559.5    3.3      43.790
2013    6        5    15   7    2.93   559.4    3.3      43.774
2013    6        5    15  14    2.93   559.2    3.3      43.758
2013    6        5    15  20    2.93   559.1    3.3      43.742
2013    6        5    15  27    2.93   559.0    3.3      43.725
2013    6        5    15  33    2.93   558.8    3.3      43.709
2013    6        5    15  40    2.93   558.7    3.3      43.692
2013    6        5    15  46    2.93   558.5    3.3      43.675
2013    6        5    15  53    2.92   558.4    3.3      43.658
2013    6        5    15  59    2.92   558.3    3.3      43.642
2013    6        5    16   6    2.92   558.1    3.3      43.625
2013    6        5    16  12    2.92   558.0    3.3      43.608
2013    6        5    16  19    2.92   557.8    3.3      43.591
2013    6        5    16  26    2.92   557.7    3.3      43.574
2013    6        5    16  32    2.92   557.6    3.3      43.557
2013    6        5    16  39    2.92   557.4    3.3      43.539
2013    6        5    16  45    2.92   557.3    3.3      43.522
2013    6        5    16  52    2.92   557.1    3.3      43.505
2013    6        5    16  58    2.92   557.0    3.3      43.488
2013    6        5    17   5    2.92   556.9    3.3      43.472
2013    6        5    17  11    2.92   556.7    3.3      43.455
2013    6        5    17  18    2.92   556.6    3.3      43.438
2013    6        5    17  24    2.92   556.4    3.3      43.421
2013    6        5    17  31    2.92   556.3    3.3      43.405
2013    6        5    17  37    2.92   556.2    3.3      43.389
2013    6        5    17  44    2.92   556.0    3.3      43.372
2013    6        5    17  50    2.92   555.9    3.3      43.356
2013    6        5    17  57    2.92   555.7    3.3      43.341
2013    6        5    18   4    2.92   555.6    3.3      43.325
2013    6        5    18  10    2.92   555.5    3.3      43.309
2013    6        5    18  17    2.92   555.3    3.3      43.294
2013    6        5    18  23    2.92   555.2    3.3      43.279
2013    6        5    18  30    2.92   555.1    3.3      43.264
2013    6        5    18  36    2.92   554.9    3.3      43.250
2013    6        5    18  43    2.92   554.8    3.3      43.236
2013    6        5    18  49    2.92   554.6    3.3      43.221
2013    6        5    18  56    2.92   554.5    3.3      43.208
2013    6        5    19   2    2.92   554.4    3.3      43.194
2013    6        5    19   9    2.92   554.2    3.3      43.181
2013    6        5    19  16    2.92   554.1    3.3      43.168
2013    6        5    19  22    2.91   554.0    3.3      43.155
2013    6        5    19  29    2.91   553.8    3.3      43.143
2013    6        5    19  35    2.91   553.7    3.3      43.131
2013    6        5    19  42    2.91   553.6    3.3      43.120
2013    6        5    19  48    2.91   553.4    3.3      43.109
2013    6        5    19  55    2.91   553.3    3.3      43.098
2013    6        5    20   1    2.91   553.2    3.3      43.087
2013    6        5    20   8    2.91   553.0    3.3      43.078
2013    6        5    20  14    2.91   552.9    3.3      43.068
2013    6        5    20  21    2.91   552.8    3.3      43.059
2013    6        5    20  27    2.91   552.6    3.3      43.051
2013    6        5    20  34    2.91   552.5    3.3      43.042
2013    6        5    20  41    2.91   552.4    3.3      43.035
2013    6        5    20  47    2.91   552.3    3.4      43.028
2013    6        5    20  54    2.91   552.2    3.4      43.021
2013    6        5    21   0    2.91   552.0    3.4      43.015
2013    6        5    21   7    2.91   551.9    3.4      43.009
2013    6        5    21  13    2.91   551.8    3.4      43.004
2013    6        5    21  20    2.91   551.7    3.4      42.999
2013    6        5    21  26    2.91   551.6    3.4      42.995
2013    6        5    21  33    2.91   551.4    3.4      42.992
2013    6        5    21  39    2.91   551.3    3.4      42.989
2013    6        5    21  46    2.91   551.2    3.4      42.986
2013    6        5    21  52    2.91   551.1    3.4      42.984
2013    6        5    21  59    2.91   551.0    3.4      42.983
2013    6        5    22   6    2.91   550.9    3.4      42.983
2013    6        5    22  12    2.91   550.8    3.4      42.983
2013    6        5    22  19    2.91   550.7    3.4      42.984
2013    6        5    22  25    2.91   550.5    3.4      42.986
2013    6        5    22  32    2.91   550.4    3.4      42.989
2013    6        5    22  38    2.91   550.3    3.4      42.993
2013    6        5    22  45    2.91   550.2    3.4      42.997
2013    6        5    22  51    2.91   550.1    3.4      43.003
2013    6        5    22  58    2.92   550.0    3.4      43.010
2013    6        5    23   4    2.92   549.9    3.4      43.017
2013    6        5    23  11    2.92   549.8    3.4      43.026
2013    6        5    23  17    2.92   549.7    3.4      43.037
2013    6        5    23  24    2.92   549.6    3.4      43.048
2013    6        5    23  30    2.92   549.5    3.4      43.062
2013    6        5    23  37    2.92   549.4    3.4      43.076
2013    6        5    23  44    2.92   549.3    3.4      43.093
2013    6        5    23  50    2.92   549.3    3.5      43.111
2013    6        5    23  57    2.93   549.2    3.5      43.131
2013    6        6     0   3    2.93   549.1    3.5      43.152
2013    6        6     0  10    2.93   549.0    3.5      43.175
2013    6        6     0  16    2.93   548.9    3.5      43.201
2013    6        6     0  23    2.93   548.9    3.5      43.228
2013    6        6     0  29    2.94   548.8    3.5      43.256
2013    6        6     0  36    2.94   548.7    3.5      43.287
2013    6        6     0  42    2.94   548.6    3.5      43.319
2013    6        6     0  49    2.95   548.6    3.5      43.353
2013    6        6     0  55    2.95   548.5    3.5      43.388
2013    6        6     1   2    2.95   548.5    3.5      43.425
2013    6        6     1   9    2.95   548.4    3.6      43.464
2013    6        6     1  15    2.96   548.4    3.6      43.503
2013    6        6     1  22    2.96   548.3    3.6      43.544
2013    6        6     1  28    2.96   548.3    3.6      43.586
2013    6        6     1  35    2.97   548.2    3.6      43.628
2013    6        6     1  41    2.97   548.2    3.6      43.670
2013    6        6     1  48    2.97   548.1    3.6      43.713
2013    6        6     1  54    2.97   548.1    3.6      43.756
2013    6        6     2   1    2.98   548.1    3.6      43.799
2013    6        6     2   7    2.98   548.0    3.7      43.841
2013    6        6     2  14    2.98   548.0    3.7      43.883
2013    6        6     2  20    2.98   547.9    3.7      43.925
2013    6        6     2  27    2.98   547.9    3.7      43.967
2013    6        6     2  33    2.98   547.8    3.7      44.010
2013    6        6     2  40    2.98   547.7    3.7      44.052
2013    6        6     2  47    2.98   547.6    3.7      44.094
2013    6        6     2  53    2.99   547.5    3.7      44.134
2013    6        6     3   0    2.99   547.4    3.7      44.173
2013    6        6     3   6    2.99   547.3    3.8      44.210
2013    6        6     3  13    2.99   547.2    3.8      44.244
2013    6        6     3  19    2.99   547.1    3.8      44.275
2013    6        6     3  26    2.99   547.0    3.8      44.303
2013    6        6     3  32    2.99   546.9    3.8      44.329
2013    6        6     3  39    2.99   546.8    3.8      44.351
2013    6        6     3  45    2.98   546.7    3.8      44.369
2013    6        6     3  52    2.98   546.6    3.8      44.384
2013    6        6     3  59    2.98   546.4    3.8      44.396
2013    6        6     4   5    2.98   546.3    3.8      44.404
2013    6        6     4  12    2.98   546.2    3.8      44.409
2013    6        6     4  18    2.98   546.0    3.8      44.411
2013    6        6     4  25    2.98   545.9    3.8      44.411
2013    6        6     4  31    2.98   545.7    3.8      44.407
2013    6        6     4  38    2.98   545.6    3.8      44.402
2013    6        6     4  44    2.98   545.4    3.8      44.395
2013    6        6     4  51    2.98   545.2    3.8      44.386
2013    6        6     4  57    2.97   545.1    3.8      44.376
2013    6        6     5   4    2.97   544.9    3.8      44.366
2013    6        6     5  10    2.97   544.7    3.8      44.354
2013    6        6     5  17    2.97   544.5    3.8      44.343
2013    6        6     5  23    2.97   544.3    3.8      44.331
2013    6        6     5  30    2.97   544.1    3.8      44.318
2013    6        6     5  37    2.96   543.9    3.8      44.306
2013    6        6     5  43    2.96   543.7    3.8      44.294
2013    6        6     5  50    2.96   543.5    3.8      44.284
2013    6        6     5  56    2.96   543.3    3.8      44.274
2013    6        6     6   3    2.96   543.0    3.8      44.266
2013    6        6     6   9    2.96   542.8    3.8      44.259
2013    6        6     6  16    2.95   542.6    3.8      44.253
2013    6        6     6  22    2.95   542.4    3.8      44.247
2013    6        6     6  29    2.95   542.2    3.8      44.240
2013    6        6     6  35    2.95   541.9    3.8      44.231
2013    6        6     6  42    2.95   541.7    3.8      44.222
2013    6        6     6  48    2.94   541.5    3.8      44.210
2013    6        6     6  55    2.94   541.3    3.8      44.195
2013    6        6     7   2    2.94   541.1    3.8      44.177
2013    6        6     7   8    2.94   540.9    3.8      44.156
2013    6        6     7  15    2.94   540.8    3.8      44.132
2013    6        6     7  21    2.94   540.6    3.8      44.103
2013    6        6     7  28    2.93   540.4    3.8      44.070
2013    6        6     7  34    2.93   540.3    3.8      44.033
2013    6        6     7  41    2.93   540.1    3.7      43.992
2013    6        6     7  47    2.93   540.0    3.7      43.948
2013    6        6     7  54    2.93   539.8    3.7      43.900
2013    6        6     8   0    2.92   539.7    3.7      43.849
2013    6        6     8   7    2.92   539.6    3.7      43.795
2013    6        6     8  13    2.92   539.4    3.7      43.739
2013    6        6     8  20    2.92   539.3    3.7      43.679
2013    6        6     8  26    2.91   539.1    3.7      43.618
2013    6        6     8  33    2.91   539.0    3.7      43.554
2013    6        6     8  40    2.91   538.8    3.7      43.490
2013    6        6     8  46    2.90   538.6    3.6      43.424
2013    6        6     8  53    2.90   538.4    3.6      43.358
2013    6        6     8  59    2.90   538.2    3.6      43.291
2013    6        6     9   6    2.90   538.0    3.6      43.223
2013    6        6     9  12    2.89   537.8    3.6      43.154
2013    6        6     9  19    2.89   537.6    3.6      43.084
2013    6        6     9  25    2.89   537.4    3.6      43.013
2013    6        6     9  32    2.88   537.1    3.6      42.942
2013    6        6     9  38    2.88   536.9    3.6      42.871
2013    6        6     9  45    2.88   536.7    3.5      42.802
2013    6        6     9  51    2.88   536.5    3.5      42.733
2013    6        6     9  58    2.88   536.2    3.5      42.667
2013    6        6    10   5    2.87   536.0    3.5      42.602
2013    6        6    10  11    2.87   535.8    3.5      42.539
2013    6        6    10  18    2.87   535.6    3.5      42.478
2013    6        6    10  24    2.87   535.4    3.5      42.418
2013    6        6    10  31    2.87   535.1    3.5      42.360
2013    6        6    10  37    2.86   534.9    3.5      42.303
2013    6        6    10  44    2.86   534.7    3.5      42.247
2013    6        6    10  50    2.86   534.5    3.4      42.192
2013    6        6    10  57    2.86   534.3    3.4      42.138
2013    6        6    11   3    2.86   534.1    3.4      42.084
2013    6        6    11  10    2.86   533.9    3.4      42.031
2013    6        6    11  16    2.86   533.7    3.4      41.979
2013    6        6    11  23    2.85   533.5    3.4      41.928
2013    6        6    11  30    2.85   533.3    3.4      41.878
2013    6        6    11  36    2.85   533.1    3.4      41.828
2013    6        6    11  43    2.85   532.9    3.4      41.780
2013    6        6    11  49    2.85   532.7    3.4      41.732
2013    6        6    11  56    2.85   532.5    3.4      41.685
2013    6        6    12   2    2.85   532.3    3.4      41.639
2013    6        6    12   9    2.84   532.1    3.4      41.595
2013    6        6    12  15    2.84   532.0    3.3      41.550
2013    6        6    12  22    2.84   531.8    3.3      41.507
2013    6        6    12  28    2.84   531.6    3.3      41.465
2013    6        6    12  35    2.84   531.4    3.3      41.423
2013    6        6    12  41    2.84   531.2    3.3      41.382
2013    6        6    12  48    2.84   531.0    3.3      41.342
2013    6        6    12  55    2.83   530.8    3.3      41.303
2013    6        6    13   1    2.83   530.6    3.3      41.264
2013    6        6    13   8    2.83   530.4    3.3      41.226
2013    6        6    13  14    2.83   530.2    3.3      41.189
2013    6        6    13  21    2.83   530.0    3.3      41.152
2013    6        6    13  27    2.83   529.8    3.3      41.117
2013    6        6    13  34    2.83   529.6    3.3      41.082
2013    6        6    13  40    2.83   529.4    3.3      41.048
2013    6        6    13  47    2.83   529.2    3.3      41.016
2013    6        6    13  53    2.82   529.0    3.3      40.984
2013    6        6    14   0    2.82   528.9    3.3      40.954
2013    6        6    14   6    2.82   528.7    3.3      40.925
2013    6        6    14  13    2.82   528.5    3.3      40.896
2013    6        6    14  19    2.82   528.3    3.3      40.869
2013    6        6    14  26    2.82   528.1    3.3      40.842
2013    6        6    14  33    2.82   527.9    3.3      40.815
2013    6        6    14  39    2.82   527.7    3.3      40.789
2013    6        6    14  46    2.82   527.5    3.3      40.764
2013    6        6    14  52    2.82   527.3    3.3      40.739
2013    6        6    14  59    2.82   527.1    3.3      40.714
2013    6        6    15   5    2.81   526.9    3.3      40.690
2013    6        6    15  12    2.81   526.7    3.3      40.666
2013    6        6    15  18    2.81   526.5    3.3      40.642
2013    6        6    15  25    2.81   526.3    3.3      40.619
2013    6        6    15  31    2.81   526.1    3.3      40.596
2013    6        6    15  38    2.81   525.9    3.3      40.574
2013    6        6    15  44    2.81   525.6    3.3      40.553
2013    6        6    15  51    2.81   525.4    3.3      40.534
2013    6        6    15  57    2.81   525.2    3.3      40.515
2013    6        6    16   4    2.81   525.0    3.3      40.498
2013    6        6    16  11    2.81   524.8    3.3      40.482
2013    6        6    16  17    2.81   524.6    3.3      40.467
2013    6        6    16  24    2.81   524.4    3.3      40.454
2013    6        6    16  30    2.81   524.2    3.3      40.442
2013    6        6    16  37    2.81   524.0    3.3      40.432
2013    6        6    16  43    2.81   523.8    3.3      40.424
2013    6        6    16  50    2.81   523.6    3.4      40.416
2013    6        6    16  56    2.81   523.4    3.4      40.411
2013    6        6    17   3    2.81   523.2    3.4      40.407
2013    6        6    17   9    2.81   523.0    3.4      40.404
2013    6        6    17  16    2.81   522.8    3.4      40.402
2013    6        6    17  22    2.81   522.6    3.4      40.401
2013    6        6    17  29    2.81   522.4    3.4      40.402
2013    6        6    17  36    2.81   522.2    3.4      40.403
2013    6        6    17  42    2.81   522.0    3.4      40.404
2013    6        6    17  49    2.81   521.8    3.4      40.407
2013    6        6    17  55    2.81   521.6    3.4      40.409
2013    6        6    18   2    2.81   521.5    3.5      40.412
2013    6        6    18   8    2.81   521.3    3.5      40.415
2013    6        6    18  15    2.81   521.1    3.5      40.417
2013    6        6    18  21    2.81   520.9    3.5      40.419
2013    6        6    18  28    2.81   520.7    3.5      40.420
2013    6        6    18  34    2.81   520.5    3.5      40.421
2013    6        6    18  41    2.82   520.3    3.5      40.421
2013    6        6    18  47    2.82   520.1    3.5      40.421
2013    6        6    18  54    2.82   519.9    3.5      40.420
2013    6        6    19   1    2.82   519.7    3.6      40.419
2013    6        6    19   7    2.82   519.5    3.6      40.417
2013    6        6    19  14    2.82   519.3    3.6      40.415
2013    6        6    19  20    2.82   519.0    3.6      40.412
2013    6        6    19  27    2.82   518.8    3.6      40.409
2013    6        6    19  33    2.82   518.6    3.6      40.406
2013    6        6    19  40    2.83   518.4    3.6      40.403
2013    6        6    19  46    2.83   518.1    3.6      40.400
2013    6        6    19  53    2.83   517.9    3.6      40.397
2013    6        6    19  59    2.83   517.7    3.7      40.395
2013    6        6    20   6    2.83   517.4    3.7      40.393
2013    6        6    20  12    2.83   517.2    3.7      40.392
2013    6        6    20  19    2.83   516.9    3.7      40.392
2013    6        6    20  26    2.84   516.7    3.7      40.392
2013    6        6    20  32    2.84   516.5    3.7      40.393
2013    6        6    20  39    2.84   516.2    3.7      40.395
2013    6        6    20  45    2.84   516.0    3.7      40.397
2013    6        6    20  52    2.84   515.7    3.7      40.399
2013    6        6    20  58    2.85   515.5    3.8      40.402
2013    6        6    21   5    2.85   515.2    3.8      40.405
2013    6        6    21  11    2.85   515.0    3.8      40.409
2013    6        6    21  18    2.85   514.8    3.8      40.412
2013    6        6    21  24    2.86   514.5    3.8      40.416
2013    6        6    21  31    2.86   514.3    3.8      40.421
2013    6        6    21  37    2.86   514.0    3.8      40.425
2013    6        6    21  44    2.87   513.8    3.8      40.430
2013    6        6    21  50    2.87   513.6    3.8      40.434
2013    6        6    21  57    2.87   513.3    3.9      40.439
2013    6        6    22   4    2.88   513.1    3.9      40.445
2013    6        6    22  10    2.88   512.8    3.9      40.451
2013    6        6    22  17    2.88   512.6    3.9      40.458
2013    6        6    22  23    2.88   512.3    3.9      40.467
2013    6        6    22  30    2.89   512.1    3.9      40.476
2013    6        6    22  36    2.89   511.8    3.9      40.486
2013    6        6    22  43    2.89   511.5    3.9      40.496
2013    6        6    22  49    2.90   511.3    3.9      40.506
2013    6        6    22  56    2.90   511.0    3.9      40.515
2013    6        6    23   2    2.91   510.8    4.0      40.523
2013    6        6    23   9    2.91   510.5    4.0      40.530
2013    6        6    23  15    2.91   510.3    4.0      40.536
2013    6        6    23  22    2.92   510.0    4.0      40.541
2013    6        6    23  28    2.92   509.8    4.0      40.546
2013    6        6    23  35    2.92   509.5    4.0      40.549
2013    6        6    23  42    2.93   509.3    4.0      40.550
2013    6        6    23  48    2.93   509.0    4.0      40.550
2013    6        6    23  55    2.94   508.8    4.0      40.548
2013    6        7     0   1    2.94   508.5    4.0      40.544
2013    6        7     0   8    2.94   508.3    4.0      40.538
2013    6        7     0  14    2.95   508.0    4.0      40.530
2013    6        7     0  21    2.95   507.8    4.0      40.519
2013    6        7     0  27    2.95   507.6    4.0      40.506
2013    6        7     0  34    2.96   507.3    4.1      40.491
2013    6        7     0  40    2.96   507.1    4.1      40.474
2013    6        7     0  47    2.96   506.9    4.1      40.455
2013    6        7     0  53    2.97   506.6    4.1      40.433
2013    6        7     1   0    2.97   506.4    4.1      40.410
2013    6        7     1   7    2.97   506.2    4.1      40.385
2013    6        7     1  13    2.98   505.9    4.1      40.357
2013    6        7     1  20    2.98   505.7    4.1      40.328
2013    6        7     1  26    2.98   505.5    4.1      40.297
2013    6        7     1  33    2.98   505.3    4.1      40.264
2013    6        7     1  39    2.99   505.1    4.1      40.229
2013    6        7     1  46    2.99   504.9    4.1      40.192
2013    6        7     1  52    2.99   504.6    4.1      40.154
2013    6        7     1  59    2.99   504.4    4.1      40.113
2013    6        7     2   5    2.99   504.2    4.1      40.072
2013    6        7     2  12    3.00   504.0    4.1      40.028
2013    6        7     2  18    3.00   503.8    4.1      39.984
2013    6        7     2  25    3.00   503.6    4.1      39.937
2013    6        7     2  32    3.00   503.4    4.1      39.889
2013    6        7     2  38    3.00   503.2    4.1      39.840
2013    6        7     2  45    3.00   503.0    4.1      39.790
2013    6        7     2  51    3.00   502.8    4.1      39.738
2013    6        7     2  58    3.00   502.7    4.1      39.685
2013    6        7     3   4    3.00   502.5    4.1      39.630
2013    6        7     3  11    3.00   502.3    4.1      39.575
2013    6        7     3  17    3.00   502.1    4.1      39.519
2013    6        7     3  24    3.00   501.9    4.1      39.461
2013    6        7     3  30    3.00   501.7    4.1      39.403
2013    6        7     3  37    3.00   501.6    4.1      39.344
2013    6        7     3  43    3.00   501.4    4.1      39.283
2013    6        7     3  50    3.00   501.2    4.1      39.223
2013    6        7     3  56    3.00   501.0    4.1      39.161
2013    6        7     4   3    3.00   500.9    4.1      39.099
2013    6        7     4  10    3.00   500.7    4.1      39.036
2013    6        7     4  16    3.00   500.5    4.1      38.973
2013    6        7     4  23    3.00   500.4    4.1      38.909
2013    6        7     4  29    3.00   500.2    4.1      38.845
2013    6        7     4  36    3.00   500.0    4.1      38.780
2013    6        7     4  42    2.99   499.9    4.1      38.715
2013    6        7     4  49    2.99   499.7    4.1      38.650
2013    6        7     4  55    2.99   499.5    4.1      38.585
2013    6        7     5   2    2.99   499.4    4.1      38.519
2013    6        7     5   8    2.99   499.2    4.1      38.453
2013    6        7     5  15    2.99   499.1    4.1      38.386
2013    6        7     5  21    2.98   498.9    4.1      38.319
2013    6        7     5  28    2.98   498.7    4.1      38.252
2013    6        7     5  34    2.98   498.6    4.1      38.184
2013    6        7     5  41    2.98   498.4    4.1      38.116
2013    6        7     5  48    2.98   498.3    4.0      38.048
2013    6        7     5  54    2.98   498.1    4.0      37.979
2013    6        7     6   1    2.97   498.0    4.0      37.911
2013    6        7     6   7    2.97   497.8    4.0      37.842
2013    6        7     6  14    2.97   497.7    4.0      37.774
2013    6        7     6  20    2.97   497.5    4.0      37.706
2013    6        7     6  27    2.96   497.4    4.0      37.638
2013    6        7     6  33    2.96   497.2    4.0      37.570
2013    6        7     6  40    2.96   497.1    4.0      37.502
2013    6        7     6  46    2.96   496.9    4.0      37.434
2013    6        7     6  53    2.95   496.8    4.0      37.367
2013    6        7     6  59    2.95   496.6    4.0      37.299
2013    6        7     7   6    2.95   496.5    4.0      37.232
2013    6        7     7  13    2.94   496.3    4.0      37.164
2013    6        7     7  19    2.94   496.2    4.0      37.096
2013    6        7     7  26    2.94   496.0    4.0      37.029
2013    6        7     7  32    2.94   495.9    4.0      36.961
2013    6        7     7  39    2.93   495.7    4.0      36.894
2013    6        7     7  45    2.93   495.6    4.0      36.826
2013    6        7     7  52    2.93   495.5    4.0      36.759
2013    6        7     7  58    2.92   495.3    4.0      36.693
2013    6        7     8   5    2.92   495.2    4.0      36.626
2013    6        7     8  11    2.92   495.0    4.0      36.561
2013    6        7     8  18    2.91   494.9    4.0      36.495
2013    6        7     8  24    2.91   494.7    4.0      36.431
2013    6        7     8  31    2.91   494.6    4.0      36.366
2013    6        7     8  37    2.91   494.5    4.0      36.303
2013    6        7     8  44    2.90   494.3    4.0      36.240
2013    6        7     8  51    2.90   494.2    3.9      36.178
2013    6        7     8  57    2.90   494.0    3.9      36.117
2013    6        7     9   4    2.89   493.9    3.9      36.057
2013    6        7     9  10    2.89   493.7    3.9      35.997
2013    6        7     9  17    2.89   493.6    3.9      35.938
2013    6        7     9  23    2.89   493.5    3.9      35.880
2013    6        7     9  30    2.88   493.3    3.9      35.822
2013    6        7     9  36    2.88   493.2    3.9      35.766
2013    6        7     9  43    2.88   493.0    3.9      35.710
2013    6        7     9  49    2.87   492.9    3.9      35.655
2013    6        7     9  56    2.87   492.8    3.9      35.601
2013    6        7    10   3    2.87   492.6    3.9      35.547
2013    6        7    10   9    2.87   492.5    3.9      35.495
2013    6        7    10  16    2.86   492.3    3.9      35.443
2013    6        7    10  22    2.86   492.2    3.9      35.392
2013    6        7    10  29    2.86   492.1    3.9      35.342
2013    6        7    10  35    2.86   491.9    3.9      35.293
2013    6        7    10  42    2.85   491.8    3.9      35.244
2013    6        7    10  48    2.85   491.6    3.9      35.197
2013    6        7    10  55    2.85   491.5    3.9      35.150
2013    6        7    11   1    2.85   491.3    3.9      35.104
2013    6        7    11   8    2.84   491.2    3.9      35.059
2013    6        7    11  14    2.84   491.1    3.9      35.015
2013    6        7    11  21    2.84   490.9    3.9      34.971
2013    6        7    11  27    2.84   490.8    3.9      34.929
2013    6        7    11  34    2.84   490.6    3.9      34.887
2013    6        7    11  40    2.83   490.5    3.9      34.846
2013    6        7    11  47    2.83   490.3    3.9      34.806
2013    6        7    11  54    2.83   490.2    3.9      34.767
2013    6        7    12   0    2.83   490.0    3.9      34.729
2013    6        7    12   7    2.83   489.9    3.9      34.692
2013    6        7    12  13    2.82   489.7    3.9      34.655
2013    6        7    12  20    2.82   489.6    3.9      34.620
2013    6        7    12  26    2.82   489.4    3.9      34.585
2013    6        7    12  33    2.82   489.3    3.9      34.552
2013    6        7    12  39    2.82   489.1    3.9      34.519
2013    6        7    12  46    2.82   489.0    3.9      34.487
2013    6        7    12  52    2.82   488.8    3.9      34.456
2013    6        7    12  59    2.81   488.6    3.9      34.426
2013    6        7    13   5    2.81   488.5    3.9      34.397
2013    6        7    13  12    2.81   488.3    3.9      34.368
2013    6        7    13  18    2.81   488.2    3.9      34.341
2013    6        7    13  25    2.81   488.0    3.9      34.314
2013    6        7    13  32    2.81   487.8    3.9      34.288
2013    6        7    13  38    2.81   487.7    3.9      34.264
2013    6        7    13  45    2.81   487.5    3.9      34.240
2013    6        7    13  51    2.81   487.4    3.9      34.217
2013    6        7    13  58    2.81   487.2    3.9      34.194
2013    6        7    14   4    2.81   487.0    3.9      34.173
2013    6        7    14  11    2.81   486.9    3.9      34.152
2013    6        7    14  17    2.80   486.7    3.9      34.132
2013    6        7    14  24    2.80   486.5    3.9      34.113
2013    6        7    14  30    2.80   486.4    3.9      34.095
2013    6        7    14  37    2.80   486.2    3.9      34.077
2013    6        7    14  43    2.80   486.0    3.9      34.060
2013    6        7    14  50    2.80   485.8    3.9      34.044
2013    6        7    14  57    2.80   485.7    3.9      34.028
2013    6        7    15   3    2.80   485.5    4.0      34.013
2013    6        7    15  10    2.80   485.3    4.0      33.999
2013    6        7    15  16    2.80   485.1    4.0      33.985
2013    6        7    15  23    2.80   485.0    4.0      33.972
2013    6        7    15  29    2.80   484.8    4.0      33.959
2013    6        7    15  36    2.80   484.6    4.0      33.947
2013    6        7    15  42    2.80   484.4    4.0      33.936
2013    6        7    15  49    2.80   484.2    4.0      33.925
2013    6        7    15  55    2.80   484.1    4.0      33.914
2013    6        7    16   2    2.80   483.9    4.0      33.903
2013    6        7    16   8    2.80   483.7    4.0      33.893
2013    6        7    16  15    2.80   483.5    4.0      33.884
2013    6        7    16  22    2.80   483.3    4.0      33.875
2013    6        7    16  28    2.80   483.1    4.0      33.866
2013    6        7    16  35    2.80   483.0    4.0      33.857
2013    6        7    16  41    2.80   482.8    4.0      33.849
2013    6        7    16  48    2.80   482.6    4.0      33.841
2013    6        7    16  54    2.80   482.4    4.0      33.833
2013    6        7    17   1    2.80   482.2    4.0      33.825
2013    6        7    17   7    2.81   482.1    4.0      33.818
2013    6        7    17  14    2.81   481.9    4.0      33.811
2013    6        7    17  20    2.81   481.7    4.0      33.804
2013    6        7    17  27    2.81   481.5    4.0      33.797
2013    6        7    17  33    2.81   481.3    4.0      33.790
2013    6        7    17  40    2.81   481.1    4.1      33.783
2013    6        7    17  46    2.81   481.0    4.1      33.777
2013    6        7    17  53    2.81   480.8    4.1      33.770
2013    6        7    18   0    2.81   480.6    4.1      33.764
2013    6        7    18   6    2.81   480.4    4.1      33.757
2013    6        7    18  13    2.81   480.2    4.1      33.751
2013    6        7    18  19    2.81   480.1    4.1      33.745
2013    6        7    18  26    2.81   479.9    4.1      33.738
2013    6        7    18  32    2.82   479.7    4.1      33.732
2013    6        7    18  39    2.82   479.5    4.1      33.725
2013    6        7    18  45    2.82   479.3    4.1      33.719
2013    6        7    18  52    2.82   479.2    4.1      33.712
2013    6        7    18  58    2.82   479.0    4.1      33.706
2013    6        7    19   5    2.82   478.8    4.1      33.699
2013    6        7    19  11    2.82   478.6    4.1      33.693
2013    6        7    19  18    2.82   478.5    4.1      33.686
2013    6        7    19  24    2.82   478.3    4.1      33.679
2013    6        7    19  31    2.82   478.1    4.1      33.673
2013    6        7    19  38    2.83   477.9    4.1      33.666
2013    6        7    19  44    2.83   477.8    4.1      33.659
2013    6        7    19  51    2.83   477.6    4.1      33.652
2013    6        7    19  57    2.83   477.4    4.1      33.645
2013    6        7    20   4    2.83   477.2    4.2      33.638
2013    6        7    20  10    2.83   477.1    4.2      33.631
2013    6        7    20  17    2.83   476.9    4.2      33.624
2013    6        7    20  23    2.83   476.7    4.2      33.617
2013    6        7    20  30    2.83   476.5    4.2      33.610
2013    6        7    20  36    2.83   476.4    4.2      33.603
2013    6        7    20  43    2.84   476.2    4.2      33.596
2013    6        7    20  49    2.84   476.0    4.2      33.589
2013    6        7    20  56    2.84   475.9    4.2      33.582
2013    6        7    21   2    2.84   475.7    4.2      33.576
2013    6        7    21   9    2.84   475.5    4.2      33.569
2013    6        7    21  16    2.84   475.4    4.2      33.562
2013    6        7    21  22    2.84   475.2    4.2      33.555
2013    6        7    21  29    2.84   475.0    4.2      33.548
2013    6        7    21  35    2.84   474.9    4.2      33.541
2013    6        7    21  42    2.84   474.7    4.2      33.534
2013    6        7    21  48    2.84   474.5    4.2      33.527
2013    6        7    21  55    2.85   474.4    4.2      33.520
2013    6        7    22   1    2.85   474.2    4.2      33.513
2013    6        7    22   8    2.85   474.0    4.2      33.505
2013    6        7    22  14    2.85   473.9    4.2      33.498
2013    6        7    22  21    2.85   473.7    4.2      33.491
2013    6        7    22  27    2.85   473.6    4.2      33.484
2013    6        7    22  34    2.85   473.4    4.2      33.476
2013    6        7    22  41    2.85   473.2    4.3      33.469
2013    6        7    22  47    2.85   473.1    4.3      33.461
2013    6        7    22  54    2.85   472.9    4.3      33.454
2013    6        7    23   0    2.85   472.8    4.3      33.446
2013    6        7    23   7    2.85   472.6    4.3      33.438
2013    6        7    23  13    2.85   472.4    4.3      33.430
2013    6        7    23  20    2.86   472.3    4.3      33.422
2013    6        7    23  26    2.86   472.1    4.3      33.414
2013    6        7    23  33    2.86   472.0    4.3      33.406
2013    6        7    23  39    2.86   471.8    4.3      33.398
2013    6        7    23  46    2.86   471.7    4.3      33.389
2013    6        7    23  52    2.86   471.5    4.3      33.381
2013    6        7    23  59    2.86   471.4    4.3      33.372
2013    6        8     0   6    2.86   471.2    4.3      33.363
2013    6        8     0  12    2.86   471.1    4.3      33.353
2013    6        8     0  19    2.86   470.9    4.3      33.343
2013    6        8     0  25    2.86   470.8    4.3      33.333
2013    6        8     0  32    2.86   470.6    4.3      33.323
2013    6        8     0  38    2.86   470.5    4.3      33.312
2013    6        8     0  45    2.86   470.3    4.3      33.302
2013    6        8     0  51    2.86   470.2    4.3      33.292
2013    6        8     0  58    2.86   470.0    4.3      33.282
2013    6        8     1   4    2.86   469.9    4.3      33.272
2013    6        8     1  11    2.86   469.7    4.3      33.263
2013    6        8     1  17    2.87   469.6    4.3      33.253
2013    6        8     1  24    2.87   469.5    4.3      33.243
2013    6        8     1  30    2.87   469.3    4.3      33.233
2013    6        8     1  37    2.87   469.2    4.3      33.224
2013    6        8     1  44    2.87   469.0    4.3      33.214
2013    6        8     1  50    2.87   468.9    4.3      33.205
2013    6        8     1  57    2.87   468.7    4.4      33.195
2013    6        8     2   3    2.87   468.6    4.4      33.186
2013    6        8     2  10    2.87   468.5    4.4      33.176
2013    6        8     2  16    2.87   468.3    4.4      33.167
2013    6        8     2  23    2.87   468.2    4.4      33.158
2013    6        8     2  29    2.87   468.0    4.4      33.149
2013    6        8     2  36    2.87   467.9    4.4      33.140
2013    6        8     2  42    2.87   467.7    4.4      33.131
2013    6        8     2  49    2.87   467.6    4.4      33.123
2013    6        8     2  55    2.87   467.5    4.4      33.114
2013    6        8     3   2    2.87   467.3    4.4      33.105
2013    6        8     3   8    2.87   467.2    4.4      33.097
2013    6        8     3  15    2.87   467.0    4.4      33.088
2013    6        8     3  21    2.87   466.9    4.4      33.080
2013    6        8     3  28    2.87   466.7    4.4      33.072
2013    6        8     3  35    2.87   466.6    4.4      33.064
2013    6        8     3  41    2.87   466.5    4.4      33.055
2013    6        8     3  48    2.87   466.3    4.4      33.047
2013    6        8     3  54    2.88   466.2    4.4      33.039
2013    6        8     4   1    2.88   466.0    4.4      33.031
2013    6        8     4   7    2.88   465.9    4.4      33.023
2013    6        8     4  14    2.88   465.8    4.4      33.015
2013    6        8     4  20    2.88   465.6    4.4      33.007
2013    6        8     4  27    2.88   465.5    4.4      32.999
2013    6        8     4  33    2.88   465.3    4.4      32.991
2013    6        8     4  40    2.88   465.2    4.4      32.984
2013    6        8     4  46    2.88   465.1    4.4      32.976
2013    6        8     4  53    2.88   464.9    4.4      32.968
2013    6        8     4  59    2.88   464.8    4.4      32.960
2013    6        8     5   6    2.88   464.6    4.4      32.953
2013    6        8     5  13    2.88   464.5    4.4      32.945
2013    6        8     5  19    2.88   464.4    4.5      32.937
2013    6        8     5  26    2.88   464.2    4.5      32.929
2013    6        8     5  32    2.88   464.1    4.5      32.922
2013    6        8     5  39    2.88   464.0    4.5      32.914
2013    6        8     5  45    2.88   463.8    4.5      32.907
2013    6        8     5  52    2.88   463.7    4.5      32.899
2013    6        8     5  58    2.88   463.5    4.5      32.892
2013    6        8     6   5    2.88   463.4    4.5      32.884
2013    6        8     6  11    2.88   463.3    4.5      32.877
2013    6        8     6  18    2.88   463.1    4.5      32.869
2013    6        8     6  24    2.89   463.0    4.5      32.862
2013    6        8     6  31    2.89   462.9    4.5      32.855
2013    6        8     6  38    2.89   462.7    4.5      32.848
2013    6        8     6  44    2.89   462.6    4.5      32.840
2013    6        8     6  51    2.89   462.4    4.5      32.833
2013    6        8     6  57    2.89   462.3    4.5      32.826
2013    6        8     7   4    2.89   462.2    4.5      32.819
2013    6        8     7  10    2.89   462.0    4.5      32.812
2013    6        8     7  17    2.89   461.9    4.5      32.805
2013    6        8     7  23    2.89   461.8    4.5      32.798
2013    6        8     7  30    2.89   461.6    4.5      32.791
2013    6        8     7  36    2.89   461.5    4.5      32.785
2013    6        8     7  43    2.89   461.4    4.5      32.778
2013    6        8     7  49    2.89   461.2    4.5      32.771
2013    6        8     7  56    2.89   461.1    4.5      32.765
2013    6        8     8   3    2.89   461.0    4.5      32.758
2013    6        8     8   9    2.89   460.8    4.5      32.751
2013    6        8     8  16    2.89   460.7    4.5      32.745
2013    6        8     8  22    2.89   460.6    4.5      32.738
2013    6        8     8  29    2.89   460.4    4.5      32.732
2013    6        8     8  35    2.89   460.3    4.5      32.725
2013    6        8     8  42    2.89   460.2    4.5      32.719
2013    6        8     8  48    2.89   460.0    4.6      32.712
2013    6        8     8  55    2.90   459.9    4.6      32.706
2013    6        8     9   1    2.90   459.8    4.6      32.699
2013    6        8     9   8    2.90   459.6    4.6      32.692
2013    6        8     9  14    2.90   459.5    4.6      32.686
2013    6        8     9  21    2.90   459.4    4.6      32.679
2013    6        8     9  27    2.90   459.2    4.6      32.672
2013    6        8     9  34    2.90   459.1    4.6      32.666
2013    6        8     9  40    2.90   459.0    4.6      32.659
2013    6        8     9  47    2.90   458.8    4.6      32.652
2013    6        8     9  54    2.90   458.7    4.6      32.645
2013    6        8    10   0    2.90   458.6    4.6      32.638
2013    6        8    10   7    2.90   458.4    4.6      32.631
2013    6        8    10  13    2.90   458.3    4.6      32.624
2013    6        8    10  20    2.90   458.2    4.6      32.617
2013    6        8    10  26    2.90   458.0    4.6      32.609
2013    6        8    10  33    2.90   457.9    4.6      32.602
2013    6        8    10  39    2.90   457.8    4.6      32.595
2013    6        8    10  46    2.90   457.7    4.6      32.587
2013    6        8    10  52    2.90   457.5    4.6      32.580
2013    6        8    10  59    2.90   457.4    4.6      32.572
2013    6        8    11   5    2.90   457.3    4.6      32.564
2013    6        8    11  12    2.90   457.1    4.6      32.556
2013    6        8    11  18    2.90   457.0    4.6      32.548
2013    6        8    11  25    2.90   456.9    4.6      32.541
2013    6        8    11  32    2.90   456.7    4.6      32.532
2013    6        8    11  38    2.90   456.6    4.6      32.524
2013    6        8    11  45    2.90   456.5    4.6      32.516
2013    6        8    11  51    2.91   456.3    4.6      32.508
2013    6        8    11  58    2.91   456.2    4.6      32.500
2013    6        8    12   4    2.91   456.1    4.6      32.492
2013    6        8    12  11    2.91   455.9    4.6      32.483
2013    6        8    12  17    2.91   455.8    4.6      32.475
2013    6        8    12  24    2.91   455.7    4.7      32.467
2013    6        8    12  30    2.91   455.6    4.7      32.458
2013    6        8    12  37    2.91   455.4    4.7      32.450
2013    6        8    12  43    2.91   455.3    4.7      32.442
2013    6        8    12  50    2.91   455.2    4.7      32.434
2013    6        8    12  57    2.91   455.0    4.7      32.425
2013    6        8    13   3    2.91   454.9    4.7      32.417
2013    6        8    13  10    2.91   454.8    4.7      32.409
2013    6        8    13  16    2.91   454.6    4.7      32.401
2013    6        8    13  23    2.91   454.5    4.7      32.393
2013    6        8    13  29    2.91   454.4    4.7      32.385
2013    6        8    13  36    2.91   454.3    4.7      32.377
2013    6        8    13  42    2.91   454.1    4.7      32.369
2013    6        8    13  49    2.91   454.0    4.7      32.362
2013    6        8    13  55    2.91   453.9    4.7      32.354
2013    6        8    14   2    2.91   453.8    4.7      32.346
2013    6        8    14   8    2.91   453.6    4.7      32.339
2013    6        8    14  15    2.91   453.5    4.7      32.332
2013    6        8    14  22    2.92   453.4    4.7      32.324
2013    6        8    14  28    2.92   453.2    4.7      32.317
2013    6        8    14  35    2.92   453.1    4.7      32.310
2013    6        8    14  41    2.92   453.0    4.7      32.303
2013    6        8    14  48    2.92   452.9    4.7      32.296
2013    6        8    14  54    2.92   452.7    4.7      32.289
2013    6        8    15   1    2.92   452.6    4.7      32.282
2013    6        8    15   7    2.92   452.5    4.7      32.276
2013    6        8    15  14    2.92   452.4    4.7      32.269
2013    6        8    15  20    2.92   452.2    4.7      32.263
2013    6        8    15  27    2.92   452.1    4.7      32.256
2013    6        8    15  33    2.92   452.0    4.7      32.250
2013    6        8    15  40    2.92   451.9    4.7      32.243
2013    6        8    15  46    2.92   451.7    4.7      32.237
2013    6        8    15  53    2.92   451.6    4.8      32.231
2013    6        8    16   0    2.92   451.5    4.8      32.225
2013    6        8    16   6    2.92   451.4    4.8      32.219
2013    6        8    16  13    2.92   451.2    4.8      32.213
2013    6        8    16  19    2.93   451.1    4.8      32.207
2013    6        8    16  26    2.93   451.0    4.8      32.201
2013    6        8    16  32    2.93   450.9    4.8      32.195
2013    6        8    16  39    2.93   450.7    4.8      32.189
2013    6        8    16  45    2.93   450.6    4.8      32.183
2013    6        8    16  52    2.93   450.5    4.8      32.177
2013    6        8    16  58    2.93   450.4    4.8      32.170
2013    6        8    17   5    2.93   450.2    4.8      32.164
2013    6        8    17  11    2.93   450.1    4.8      32.158
2013    6        8    17  18    2.93   450.0    4.8      32.152
2013    6        8    17  24    2.93   449.9    4.8      32.146
2013    6        8    17  31    2.93   449.7    4.8      32.140
2013    6        8    17  37    2.93   449.6    4.8      32.134
2013    6        8    17  44    2.93   449.5    4.8      32.128
2013    6        8    17  51    2.93   449.4    4.8      32.121
2013    6        8    17  57    2.93   449.2    4.8      32.115
2013    6        8    18   4    2.93   449.1    4.8      32.109
2013    6        8    18  10    2.93   449.0    4.8      32.103
2013    6        8    18  17    2.93   448.9    4.8      32.096
2013    6        8    18  23    2.94   448.7    4.8      32.090
2013    6        8    18  30    2.94   448.6    4.8      32.083
2013    6        8    18  36    2.94   448.5    4.8      32.077
2013    6        8    18  43    2.94   448.4    4.8      32.071
2013    6        8    18  49    2.94   448.2    4.8      32.064
2013    6        8    18  56    2.94   448.1    4.8      32.058
2013    6        8    19   2    2.94   448.0    4.8      32.051
2013    6        8    19   9    2.94   447.9    4.9      32.045
2013    6        8    19  15    2.94   447.7    4.9      32.038
2013    6        8    19  22    2.94   447.6    4.9      32.032
2013    6        8    19  29    2.94   447.5    4.9      32.025
2013    6        8    19  35    2.94   447.4    4.9      32.019
2013    6        8    19  42    2.94   447.2    4.9      32.012
2013    6        8    19  48    2.94   447.1    4.9      32.006
2013    6        8    19  55    2.94   447.0    4.9      31.999
2013    6        8    20   1    2.94   446.9    4.9      31.993
2013    6        8    20   8    2.94   446.7    4.9      31.986
2013    6        8    20  14    2.94   446.6    4.9      31.980
2013    6        8    20  21    2.94   446.5    4.9      31.974
2013    6        8    20  27    2.95   446.4    4.9      31.967
2013    6        8    20  34    2.95   446.2    4.9      31.961
2013    6        8    20  40    2.95   446.1    4.9      31.955
2013    6        8    20  47    2.95   446.0    4.9      31.949
2013    6        8    20  54    2.95   445.9    4.9      31.943
2013    6        8    21   0    2.95   445.7    4.9      31.937
2013    6        8    21   7    2.95   445.6    4.9      31.931
2013    6        8    21  13    2.95   445.5    4.9      31.925
2013    6        8    21  20    2.95   445.4    4.9      31.919
2013    6        8    21  26    2.95   445.3    4.9      31.914
2013    6        8    21  33    2.95   445.1    4.9      31.908
2013    6        8    21  39    2.95   445.0    4.9      31.903
2013    6        8    21  46    2.95   444.9    4.9      31.897
2013    6        8    21  52    2.95   444.8    4.9      31.892
2013    6        8    21  59    2.96   444.6    4.9      31.886
2013    6        8    22   5    2.96   444.5    4.9      31.881
2013    6        8    22  12    2.96   444.4    4.9      31.876
2013    6        8    22  19    2.96   444.3    5.0      31.871
2013    6        8    22  25    2.96   444.2    5.0      31.866
2013    6        8    22  32    2.96   444.0    5.0      31.861
2013    6        8    22  38    2.96   443.9    5.0      31.856
2013    6        8    22  45    2.96   443.8    5.0      31.851
2013    6        8    22  51    2.96   443.7    5.0      31.847
2013    6        8    22  58    2.96   443.6    5.0      31.842
2013    6        8    23   4    2.96   443.4    5.0      31.837
2013    6        8    23  11    2.97   443.3    5.0      31.833
2013    6        8    23  17    2.97   443.2    5.0      31.828
2013    6        8    23  24    2.97   443.1    5.0      31.824
2013    6        8    23  30    2.97   443.0    5.0      31.819
2013    6        8    23  37    2.97   442.9    5.0      31.815
2013    6        8    23  43    2.97   442.7    5.0      31.810
2013    6        8    23  50    2.97   442.6    5.0      31.806
2013    6        8    23  57    2.97   442.5    5.0      31.802
2013    6        9     0   3    2.97   442.4    5.0      31.798
2013    6        9     0  10    2.97   442.3    5.0      31.796
2013    6        9     0  16    2.98   442.1    5.0      31.793
2013    6        9     0  23    2.98   442.0    5.0      31.790
2013    6        9     0  29    2.98   441.9    5.0      31.788
2013    6        9     0  36    2.98   441.8    5.0      31.785
2013    6        9     0  42    2.98   441.7    5.0      31.783
2013    6        9     0  49    2.98   441.5    5.0      31.780
2013    6        9     0  55    2.98   441.4    5.1      31.778
2013    6        9     1   2    2.98   441.3    5.1      31.775
2013    6        9     1   8    2.99   441.2    5.1      31.773
2013    6        9     1  15    2.99   441.1    5.1      31.770
2013    6        9     1  21    2.99   440.9    5.1      31.768
2013    6        9     1  28    2.99   440.8    5.1      31.766
2013    6        9     1  34    2.99   440.7    5.1      31.764
2013    6        9     1  41    2.99   440.6    5.1      31.761
2013    6        9     1  48    2.99   440.5    5.1      31.759
2013    6        9     1  54    2.99   440.3    5.1      31.757
2013    6        9     2   1    3.00   440.2    5.1      31.755
2013    6        9     2   7    3.00   440.1    5.1      31.753
2013    6        9     2  14    3.00   440.0    5.1      31.752
2013    6        9     2  20    3.00   439.9    5.1      31.750
2013    6        9     2  27    3.00   439.7    5.1      31.748
2013    6        9     2  33    3.00   439.6    5.1      31.746
2013    6        9     2  40    3.00   439.5    5.1      31.745
2013    6        9     2  46    3.00   439.4    5.1      31.744
2013    6        9     2  53    3.01   439.3    5.1      31.742
2013    6        9     2  59    3.01   439.1    5.1      31.741
2013    6        9     3   6    3.01   439.0    5.2      31.740
2013    6        9     3  13    3.01   438.9    5.2      31.739
2013    6        9     3  19    3.01   438.8    5.2      31.738
2013    6        9     3  26    3.01   438.7    5.2      31.738
2013    6        9     3  32    3.01   438.5    5.2      31.737
2013    6        9     3  39    3.02   438.4    5.2      31.737
2013    6        9     3  45    3.02   438.3    5.2      31.737
2013    6        9     3  52    3.02   438.2    5.2      31.736
2013    6        9     3  58    3.02   438.1    5.2      31.737
2013    6        9     4   5    3.02   438.0    5.2      31.737
2013    6        9     4  11    3.02   437.9    5.2      31.737
2013    6        9     4  18    3.03   437.7    5.2      31.738
2013    6        9     4  24    3.03   437.6    5.2      31.739
2013    6        9     4  31    3.03   437.5    5.2      31.740
2013    6        9     4  37    3.03   437.4    5.2      31.741
2013    6        9     4  44    3.03   437.3    5.2      31.742
2013    6        9     4  51    3.03   437.2    5.2      31.743
2013    6        9     4  57    3.03   437.1    5.2      31.745
2013    6        9     5   4    3.04   436.9    5.3      31.747
2013    6        9     5  10    3.04   436.8    5.3      31.748
2013    6        9     5  17    3.04   436.7    5.3      31.750
2013    6        9     5  23    3.04   436.6    5.3      31.753
2013    6        9     5  30    3.04   436.5    5.3      31.755
2013    6        9     5  36    3.05   436.4    5.3      31.757
2013    6        9     5  43    3.05   436.3    5.3      31.760
2013    6        9     5  49    3.05   436.2    5.3      31.763
2013    6        9     5  56    3.05   436.1    5.3      31.766
2013    6        9     6   2    3.05   435.9    5.3      31.769
2013    6        9     6   9    3.05   435.8    5.3      31.772
2013    6        9     6  16    3.06   435.7    5.3      31.775
2013    6        9     6  22    3.06   435.6    5.3      31.779
2013    6        9     6  29    3.06   435.5    5.3      31.782
2013    6        9     6  35    3.06   435.4    5.3      31.786
2013    6        9     6  42    3.06   435.3    5.3      31.790
2013    6        9     6  48    3.07   435.2    5.3      31.794
2013    6        9     6  55    3.07   435.1    5.3      31.798
2013    6        9     7   1    3.07   435.0    5.4      31.803
2013    6        9     7   8    3.07   434.9    5.4      31.807
2013    6        9     7  14    3.07   434.8    5.4      31.812
2013    6        9     7  21    3.07   434.7    5.4      31.817
2013    6        9     7  27    3.08   434.6    5.4      31.822
2013    6        9     7  34    3.08   434.5    5.4      31.827
2013    6        9     7  40    3.08   434.4    5.4      31.833
2013    6        9     7  47    3.08   434.3    5.4      31.838
2013    6        9     7  53    3.08   434.2    5.4      31.844
2013    6        9     8   0    3.09   434.1    5.4      31.849
2013    6        9     8   7    3.09   434.0    5.4      31.855
2013    6        9     8  13    3.09   433.9    5.4      31.861
2013    6        9     8  20    3.09   433.8    5.4      31.868
2013    6        9     8  26    3.09   433.7    5.4      31.874
2013    6        9     8  33    3.10   433.6    5.4      31.880
2013    6        9     8  39    3.10   433.5    5.4      31.887
2013    6        9     8  46    3.10   433.4    5.4      31.894
2013    6        9     8  52    3.10   433.3    5.5      31.900
2013    6        9     8  59    3.10   433.2    5.5      31.907
2013    6        9     9   5    3.11   433.1    5.5      31.914
2013    6        9     9  12    3.11   433.0    5.5      31.921
2013    6        9     9  18    3.11   432.9    5.5      31.928
2013    6        9     9  25    3.11   432.8    5.5      31.935
2013    6        9     9  31    3.11   432.7    5.5      31.942
2013    6        9     9  38    3.12   432.6    5.5      31.950
2013    6        9     9  45    3.12   432.5    5.5      31.957
2013    6        9     9  51    3.12   432.4    5.5      31.964
2013    6        9     9  58    3.12   432.3    5.5      31.971
2013    6        9    10   4    3.13   432.3    5.5      31.979
2013    6        9    10  11    3.13   432.2    5.5      31.986
2013    6        9    10  17    3.13   432.1    5.5      31.993
2013    6        9    10  24    3.13   432.0    5.5      32.001
2013    6        9    10  30    3.13   431.9    5.5      32.008
2013    6        9    10  37    3.14   431.8    5.6      32.016
2013    6        9    10  43    3.14   431.7    5.6      32.023
2013    6        9    10  50    3.14   431.6    5.6      32.031
2013    6        9    10  56    3.14   431.5    5.6      32.038
2013    6        9    11   3    3.14   431.4    5.6      32.046
2013    6        9    11  10    3.15   431.4    5.6      32.053
2013    6        9    11  16    3.15   431.3    5.6      32.061
2013    6        9    11  23    3.15   431.2    5.6      32.068
2013    6        9    11  29    3.15   431.1    5.6      32.076
2013    6        9    11  36    3.15   431.0    5.6      32.084
2013    6        9    11  42    3.16   430.9    5.6      32.092
2013    6        9    11  49    3.16   430.8    5.6      32.100
2013    6        9    11  55    3.16   430.8    5.6      32.107
2013    6        9    12   2    3.16   430.7    5.6      32.116
2013    6        9    12   8    3.17   430.6    5.6      32.124
2013    6        9    12  15    3.17   430.5    5.7      32.132
2013    6        9    12  21    3.17   430.4    5.7      32.140
2013    6        9    12  28    3.17   430.3    5.7      32.149
2013    6        9    12  35    3.17   430.3    5.7      32.158
2013    6        9    12  41    3.18   430.2    5.7      32.166
2013    6        9    12  48    3.18   430.1    5.7      32.176
2013    6        9    12  54    3.18   430.0    5.7      32.185
2013    6        9    13   1    3.18   429.9    5.7      32.195
2013    6        9    13   7    3.19   429.9    5.7      32.205
2013    6        9    13  14    3.19   429.8    5.7      32.216
2013    6        9    13  20    3.19   429.7    5.7      32.227
2013    6        9    13  27    3.19   429.6    5.7      32.239
2013    6        9    13  33    3.20   429.6    5.7      32.251
2013    6        9    13  40    3.20   429.5    5.7      32.263
2013    6        9    13  46    3.20   429.4    5.7      32.276
2013    6        9    13  53    3.20   429.3    5.8      32.289
2013    6        9    13  59    3.21   429.3    5.8      32.302
2013    6        9    14   6    3.21   429.2    5.8      32.316
2013    6        9    14  13    3.21   429.1    5.8      32.330
2013    6        9    14  19    3.21   429.0    5.8      32.344
2013    6        9    14  26    3.21   429.0    5.8      32.358
2013    6        9    14  32    3.22   428.9    5.8      32.373
2013    6        9    14  39    3.22   428.8    5.8      32.388
2013    6        9    14  45    3.22   428.8    5.8      32.403
2013    6        9    14  52    3.22   428.7    5.8      32.418
2013    6        9    14  58    3.23   428.7    5.8      32.434
2013    6        9    15   5    3.23   428.6    5.8      32.450
2013    6        9    15  11    3.23   428.5    5.8      32.467
2013    6        9    15  18    3.23   428.5    5.8      32.484
2013    6        9    15  24    3.24   428.4    5.8      32.501
2013    6        9    15  31    3.24   428.3    5.9      32.518
2013    6        9    15  37    3.24   428.3    5.9      32.535
2013    6        9    15  44    3.24   428.2    5.9      32.553
2013    6        9    15  50    3.25   428.2    5.9      32.570
2013    6        9    15  57    3.25   428.1    5.9      32.587
2013    6        9    16   4    3.25   428.1    5.9      32.605
2013    6        9    16  10    3.25   428.0    5.9      32.622
2013    6        9    16  17    3.26   428.0    5.9      32.639
2013    6        9    16  23    3.26   427.9    5.9      32.656
2013    6        9    16  30    3.26   427.9    5.9      32.672
2013    6        9    16  36    3.26   427.8    5.9      32.688
2013    6        9    16  43    3.26   427.7    5.9      32.703
2013    6        9    16  49    3.27   427.7    5.9      32.719
2013    6        9    16  56    3.27   427.6    5.9      32.734
2013    6        9    17   2    3.27   427.6    5.9      32.748
2013    6        9    17   9    3.27   427.5    5.9      32.763
2013    6        9    17  15    3.27   427.5    6.0      32.777
2013    6        9    17  22    3.28   427.4    6.0      32.791
2013    6        9    17  28    3.28   427.4    6.0      32.804
2013    6        9    17  35    3.28   427.3    6.0      32.817
2013    6        9    17  42    3.28   427.3    6.0      32.830
2013    6        9    17  48    3.29   427.2    6.0      32.843
2013    6        9    17  55    3.29   427.2    6.0      32.855
2013    6        9    18   1    3.29   427.1    6.0      32.867
2013    6        9    18   8    3.29   427.1    6.0      32.879
2013    6        9    18  14    3.29   427.0    6.0      32.891
2013    6        9    18  21    3.30   427.0    6.0      32.902
2013    6        9    18  27    3.30   426.9    6.0      32.913
2013    6        9    18  34    3.30   426.9    6.0      32.924
2013    6        9    18  40    3.30   426.8    6.0      32.934
2013    6        9    18  47    3.30   426.8    6.0      32.945
2013    6        9    18  53    3.31   426.7    6.0      32.955
2013    6        9    19   0    3.31   426.7    6.0      32.965
2013    6        9    19   7    3.31   426.6    6.0      32.975
2013    6        9    19  13    3.31   426.6    6.0      32.985
2013    6        9    19  20    3.31   426.5    6.0      32.995
2013    6        9    19  26    3.32   426.5    6.1      33.004
2013    6        9    19  33    3.32   426.4    6.1      33.014
2013    6        9    19  39    3.32   426.4    6.1      33.024
2013    6        9    19  46    3.32   426.3    6.1      33.033
2013    6        9    19  52    3.33   426.3    6.1      33.043
2013    6        9    19  59    3.33   426.2    6.1      33.053
2013    6        9    20   5    3.33   426.2    6.1      33.063
2013    6        9    20  12    3.33   426.2    6.1      33.073
2013    6        9    20  18    3.33   426.1    6.1      33.084
2013    6        9    20  25    3.34   426.1    6.1      33.096
2013    6        9    20  32    3.34   426.0    6.1      33.108
2013    6        9    20  38    3.34   426.0    6.1      33.121
2013    6        9    20  45    3.34   425.9    6.1      33.134
2013    6        9    20  51    3.34   425.9    6.1      33.148
2013    6        9    20  58    3.35   425.9    6.1      33.162
2013    6        9    21   4    3.35   425.8    6.1      33.177
2013    6        9    21  11    3.35   425.8    6.1      33.193
2013    6        9    21  17    3.35   425.8    6.2      33.209
2013    6        9    21  24    3.36   425.7    6.2      33.225
2013    6        9    21  30    3.36   425.7    6.2      33.241
2013    6        9    21  37    3.36   425.7    6.2      33.258
2013    6        9    21  43    3.36   425.6    6.2      33.275
2013    6        9    21  50    3.36   425.6    6.2      33.292
2013    6        9    21  56    3.37   425.6    6.2      33.310
2013    6        9    22   3    3.37   425.5    6.2      33.327
2013    6        9    22   9    3.37   425.5    6.2      33.345
2013    6        9    22  16    3.37   425.5    6.2      33.364
2013    6        9    22  23    3.37   425.5    6.2      33.382
2013    6        9    22  29    3.38   425.4    6.2      33.402
2013    6        9    22  36    3.38   425.4    6.2      33.421
2013    6        9    22  42    3.38   425.4    6.2      33.441
2013    6        9    22  49    3.38   425.4    6.2      33.460
2013    6        9    22  55    3.38   425.3    6.2      33.480
2013    6        9    23   2    3.38   425.3    6.2      33.500
2013    6        9    23   8    3.39   425.3    6.2      33.520
2013    6        9    23  15    3.39   425.3    6.3      33.540
2013    6        9    23  21    3.39   425.3    6.3      33.559
2013    6        9    23  28    3.39   425.2    6.3      33.578
2013    6        9    23  34    3.39   425.2    6.3      33.597
2013    6        9    23  41    3.40   425.2    6.3      33.615
2013    6        9    23  47    3.40   425.2    6.3      33.632
2013    6        9    23  54    3.40   425.2    6.3      33.649
2013    6       10     0   1    3.40   425.1    6.3      33.666
2013    6       10     0   7    3.40   425.1    6.3      33.682
2013    6       10     0  14    3.40   425.1    6.3      33.697
2013    6       10     0  20    3.41   425.1    6.3      33.712
2013    6       10     0  27    3.41   425.1    6.3      33.727
2013    6       10     0  33    3.41   425.0    6.3      33.741
2013    6       10     0  40    3.41   425.0    6.3      33.755
2013    6       10     0  46    3.41   425.0    6.3      33.768
2013    6       10     0  53    3.41   425.0    6.3      33.781
2013    6       10     0  59    3.41   425.0    6.3      33.793
2013    6       10     1   6    3.42   425.0    6.3      33.806
2013    6       10     1  12    3.42   424.9    6.3      33.818
2013    6       10     1  19    3.42   424.9    6.3      33.829
2013    6       10     1  25    3.42   424.9    6.3      33.841
2013    6       10     1  32    3.42   424.9    6.3      33.852
2013    6       10     1  39    3.42   424.9    6.3      33.863
2013    6       10     1  45    3.43   424.8    6.3      33.873
2013    6       10     1  52    3.43   424.8    6.3      33.884
2013    6       10     1  58    3.43   424.8    6.3      33.894
2013    6       10     2   5    3.43   424.8    6.3      33.904
2013    6       10     2  11    3.43   424.8    6.3      33.914
2013    6       10     2  18    3.43   424.7    6.3      33.924
2013    6       10     2  24    3.43   424.7    6.3      33.934
2013    6       10     2  31    3.44   424.7    6.4      33.943
2013    6       10     2  37    3.44   424.7    6.4      33.953
2013    6       10     2  44    3.44   424.7    6.4      33.962
2013    6       10     2  50    3.44   424.7    6.4      33.972
2013    6       10     2  57    3.44   424.6    6.4      33.982
2013    6       10     3   4    3.44   424.6    6.4      33.991
2013    6       10     3  10    3.45   424.6    6.4      34.001
2013    6       10     3  17    3.45   424.6    6.4      34.011
2013    6       10     3  23    3.45   424.6    6.4      34.021
2013    6       10     3  30    3.45   424.6    6.4      34.031
2013    6       10     3  36    3.45   424.5    6.4      34.042
2013    6       10     3  43    3.45   424.5    6.4      34.054
2013    6       10     3  49    3.45   424.5    6.4      34.065
2013    6       10     3  56    3.46   424.5    6.4      34.078
2013    6       10     4   2    3.46   424.5    6.4      34.090
2013    6       10     4   9    3.46   424.5    6.4      34.103
2013    6       10     4  15    3.46   424.5    6.4      34.117
2013    6       10     4  22    3.46   424.5    6.4      34.130
2013    6       10     4  28    3.46   424.5    6.4      34.144
2013    6       10     4  35    3.46   424.5    6.4      34.159
2013    6       10     4  42    3.46   424.5    6.4      34.174
2013    6       10     4  48    3.46   424.5    6.4      34.189
2013    6       10     4  55    3.47   424.5    6.4      34.204
2013    6       10     5   1    3.47   424.4    6.4      34.219
2013    6       10     5   8    3.47   424.4    6.4      34.234
2013    6       10     5  14    3.47   424.4    6.4      34.249
2013    6       10     5  21    3.47   424.4    6.4      34.265
2013    6       10     5  27    3.47   424.4    6.5      34.280
2013    6       10     5  34    3.47   424.4    6.5      34.295
2013    6       10     5  40    3.47   424.4    6.5      34.311
2013    6       10     5  47    3.47   424.4    6.5      34.326
2013    6       10     5  53    3.48   424.4    6.5      34.341
2013    6       10     6   0    3.48   424.4    6.5      34.356
2013    6       10     6   6    3.48   424.4    6.5      34.372
2013    6       10     6  13    3.48   424.4    6.5      34.387
2013    6       10     6  20    3.48   424.5    6.5      34.401
2013    6       10     6  26    3.48   424.5    6.5      34.416
2013    6       10     6  33    3.48   424.5    6.5      34.430
2013    6       10     6  39    3.48   424.5    6.5      34.444
2013    6       10     6  46    3.48   424.5    6.5      34.458
2013    6       10     6  52    3.48   424.5    6.5      34.472
2013    6       10     6  59    3.49   424.5    6.5      34.485
2013    6       10     7   5    3.49   424.5    6.5      34.498
2013    6       10     7  12    3.49   424.5    6.5      34.511
2013    6       10     7  18    3.49   424.5    6.5      34.523
2013    6       10     7  25    3.49   424.5    6.5      34.535
2013    6       10     7  31    3.49   424.5    6.5      34.547
2013    6       10     7  38    3.49   424.5    6.5      34.558
2013    6       10     7  44    3.49   424.5    6.5      34.569
2013    6       10     7  51    3.49   424.5    6.5      34.580
2013    6       10     7  58    3.49   424.5    6.5      34.590
2013    6       10     8   4    3.49   424.5    6.5      34.601
2013    6       10     8  11    3.50   424.5    6.5      34.611
2013    6       10     8  17    3.50   424.5    6.5      34.621
2013    6       10     8  24    3.50   424.5    6.5      34.630
2013    6       10     8  30    3.50   424.5    6.5      34.640
2013    6       10     8  37    3.50   424.5    6.5      34.649
2013    6       10     8  43    3.50   424.5    6.5      34.658
2013    6       10     8  50    3.50   424.5    6.5      34.667
2013    6       10     8  56    3.50   424.5    6.5      34.676
2013    6       10     9   3    3.50   424.5    6.5      34.685
2013    6       10     9   9    3.50   424.5    6.5      34.693
2013    6       10     9  16    3.50   424.5    6.5      34.702
2013    6       10     9  22    3.51   424.5    6.5      34.710
2013    6       10     9  29    3.51   424.5    6.5      34.718
2013    6       10     9  36    3.51   424.5    6.5      34.726
2013    6       10     9  42    3.51   424.5    6.5      34.735
2013    6       10     9  49    3.51   424.5    6.5      34.743
2013    6       10     9  55    3.51   424.5    6.5      34.751
2013    6       10    10   2    3.51   424.5    6.5      34.759
2013    6       10    10   8    3.51   424.6    6.5      34.767
2013    6       10    10  15    3.51   424.6    6.5      34.775
2013    6       10    10  21    3.51   424.6    6.5      34.783
2013    6       10    10  28    3.51   424.6    6.5      34.792
2013    6       10    10  34    3.51   424.6    6.5      34.800
2013    6       10    10  41    3.51   424.6    6.5      34.808
2013    6       10    10  47    3.51   424.6    6.5      34.817
2013    6       10    10  54    3.52   424.6    6.5      34.825
2013    6       10    11   1    3.52   424.6    6.5      34.834
2013    6       10    11   7    3.52   424.6    6.5      34.843
2013    6       10    11  14    3.52   424.6    6.6      34.852
2013    6       10    11  20    3.52   424.6    6.6      34.861
2013    6       10    11  27    3.52   424.6    6.6      34.871
2013    6       10    11  33    3.52   424.6    6.6      34.880
2013    6       10    11  40    3.52   424.7    6.6      34.890
2013    6       10    11  46    3.52   424.7    6.6      34.899
2013    6       10    11  53    3.52   424.7    6.6      34.909
2013    6       10    11  59    3.52   424.7    6.6      34.919
2013    6       10    12   6    3.52   424.7    6.6      34.929
2013    6       10    12  12    3.52   424.7    6.6      34.939
2013    6       10    12  19    3.52   424.7    6.6      34.949
2013    6       10    12  25    3.52   424.7    6.6      34.959
2013    6       10    12  32    3.52   424.7    6.6      34.969
2013    6       10    12  38    3.52   424.8    6.6      34.979
2013    6       10    12  45    3.52   424.8    6.6      34.988
2013    6       10    12  52    3.52   424.8    6.6      34.998
2013    6       10    12  58    3.52   424.8    6.6      35.008
2013    6       10    13   5    3.52   424.8    6.6      35.017
2013    6       10    13  11    3.52   424.8    6.6      35.026
2013    6       10    13  18    3.52   424.8    6.6      35.036
2013    6       10    13  24    3.52   424.8    6.6      35.045
2013    6       10    13  31    3.52   424.8    6.6      35.055
2013    6       10    13  37    3.53   424.8    6.6      35.064
2013    6       10    13  44    3.53   424.9    6.6      35.074
2013    6       10    13  50    3.53   424.9    6.6      35.084
2013    6       10    13  57    3.53   424.9    6.6      35.093
2013    6       10    14   3    3.53   424.9    6.6      35.103
2013    6       10    14  10    3.53   424.9    6.6      35.113
2013    6       10    14  16    3.53   424.9    6.6      35.123
2013    6       10    14  23    3.53   424.9    6.6      35.132
2013    6       10    14  30    3.53   424.9    6.6      35.142
2013    6       10    14  36    3.53   425.0    6.6      35.151
2013    6       10    14  43    3.53   425.0    6.6      35.160
2013    6       10    14  49    3.53   425.0    6.6      35.169
2013    6       10    14  56    3.53   425.0    6.6      35.178
2013    6       10    15   2    3.53   425.0    6.6      35.186
2013    6       10    15   9    3.53   425.0    6.6      35.194
2013    6       10    15  15    3.53   425.1    6.6      35.202
2013    6       10    15  22    3.53   425.1    6.6      35.210
2013    6       10    15  28    3.53   425.1    6.6      35.217
2013    6       10    15  35    3.53   425.1    6.6      35.224
2013    6       10    15  41    3.53   425.1    6.6      35.231
2013    6       10    15  48    3.53   425.1    6.6      35.238
2013    6       10    15  54    3.53   425.2    6.6      35.245
2013    6       10    16   1    3.53   425.2    6.6      35.251
2013    6       10    16   8    3.53   425.2    6.6      35.257
2013    6       10    16  14    3.53   425.2    6.6      35.263
2013    6       10    16  21    3.53   425.2    6.6      35.269
2013    6       10    16  27    3.53   425.3    6.6      35.275
2013    6       10    16  34    3.53   425.3    6.6      35.281
2013    6       10    16  40    3.53   425.3    6.6      35.287
2013    6       10    16  47    3.53   425.3    6.6      35.292
2013    6       10    16  53    3.53   425.3    6.6      35.298
2013    6       10    17   0    3.53   425.3    6.6      35.303
2013    6       10    17   6    3.53   425.4    6.6      35.308
2013    6       10    17  13    3.54   425.4    6.6      35.314
2013    6       10    17  19    3.54   425.4    6.6      35.319
2013    6       10    17  26    3.54   425.4    6.6      35.324
2013    6       10    17  33    3.54   425.4    6.6      35.329
2013    6       10    17  39    3.54   425.5    6.6      35.334
2013    6       10    17  46    3.54   425.5    6.6      35.339
2013    6       10    17  52    3.54   425.5    6.6      35.344
2013    6       10    17  59    3.54   425.5    6.6      35.349
2013    6       10    18   5    3.54   425.6    6.6      35.353
2013    6       10    18  12    3.54   425.6    6.6      35.358
2013    6       10    18  18    3.54   425.6    6.6      35.363
2013    6       10    18  25    3.54   425.6    6.6      35.367
2013    6       10    18  31    3.54   425.6    6.6      35.371
2013    6       10    18  38    3.54   425.7    6.6      35.376
2013    6       10    18  44    3.54   425.7    6.6      35.380
2013    6       10    18  51    3.54   425.7    6.6      35.384
2013    6       10    18  57    3.54   425.7    6.6      35.388
2013    6       10    19   4    3.54   425.7    6.6      35.392
2013    6       10    19  11    3.54   425.8    6.6      35.397
2013    6       10    19  17    3.54   425.8    6.6      35.401
2013    6       10    19  24    3.54   425.8    6.6      35.405
2013    6       10    19  30    3.53   425.8    6.6      35.409
2013    6       10    19  37    3.53   425.8    6.6      35.414
2013    6       10    19  43    3.53   425.9    6.6      35.418
2013    6       10    19  50    3.53   425.9    6.6      35.423
2013    6       10    19  56    3.53   425.9    6.6      35.427
2013    6       10    20   3    3.53   425.9    6.6      35.432
2013    6       10    20   9    3.53   425.9    6.6      35.438
2013    6       10    20  16    3.53   426.0    6.6      35.443
2013    6       10    20  22    3.53   426.0    6.6      35.449
2013    6       10    20  29    3.53   426.0    6.6      35.455
2013    6       10    20  35    3.53   426.0    6.6      35.462
2013    6       10    20  42    3.53   426.0    6.6      35.469
2013    6       10    20  49    3.53   426.0    6.6      35.477
2013    6       10    20  55    3.53   426.1    6.6      35.485
2013    6       10    21   2    3.53   426.1    6.6      35.494
2013    6       10    21   8    3.53   426.1    6.6      35.503
2013    6       10    21  15    3.53   426.1    6.6      35.512
2013    6       10    21  21    3.53   426.2    6.6      35.521
2013    6       10    21  28    3.53   426.2    6.6      35.531
2013    6       10    21  34    3.53   426.2    6.6      35.540
2013    6       10    21  41    3.53   426.2    6.6      35.550
2013    6       10    21  47    3.53   426.3    6.6      35.560
2013    6       10    21  54    3.53   426.3    6.6      35.569
2013    6       10    22   0    3.53   426.3    6.6      35.578
2013    6       10    22   7    3.53   426.3    6.6      35.587
2013    6       10    22  13    3.53   426.4    6.6      35.595
2013    6       10    22  20    3.53   426.4    6.6      35.604
2013    6       10    22  27    3.53   426.4    6.6      35.611
2013    6       10    22  33    3.53   426.4    6.6      35.619
2013    6       10    22  40    3.53   426.5    6.6      35.626
2013    6       10    22  46    3.53   426.5    6.6      35.633
2013    6       10    22  53    3.53   426.5    6.6      35.640
2013    6       10    22  59    3.53   426.6    6.6      35.647
2013    6       10    23   6    3.53   426.6    6.6      35.653
2013    6       10    23  12    3.53   426.6    6.6      35.659
2013    6       10    23  19    3.53   426.7    6.6      35.665
2013    6       10    23  25    3.53   426.7    6.6      35.672
2013    6       10    23  32    3.53   426.7    6.6      35.678
2013    6       10    23  38    3.53   426.7    6.6      35.684
2013    6       10    23  45    3.53   426.8    6.6      35.690
2013    6       10    23  51    3.53   426.8    6.6      35.695
2013    6       10    23  58    3.53   426.8    6.6      35.701
2013    6       11     0   5    3.53   426.9    6.6      35.707
2013    6       11     0  11    3.53   426.9    6.6      35.712
2013    6       11     0  18    3.53   426.9    6.6      35.718
2013    6       11     0  24    3.53   427.0    6.6      35.723
2013    6       11     0  31    3.53   427.0    6.6      35.728
2013    6       11     0  37    3.53   427.1    6.6      35.733
2013    6       11     0  44    3.53   427.1    6.6      35.737
2013    6       11     0  50    3.53   427.1    6.6      35.741
2013    6       11     0  57    3.52   427.2    6.6      35.745
2013    6       11     1   3    3.52   427.2    6.6      35.748
2013    6       11     1  10    3.52   427.2    6.6      35.752
2013    6       11     1  16    3.52   427.3    6.6      35.754
2013    6       11     1  23    3.52   427.3    6.6      35.757
2013    6       11     1  30    3.52   427.3    6.5      35.759
2013    6       11     1  36    3.52   427.4    6.5      35.761
2013    6       11     1  43    3.52   427.4    6.5      35.763
2013    6       11     1  49    3.52   427.4    6.5      35.765
2013    6       11     1  56    3.52   427.5    6.5      35.766
2013    6       11     2   2    3.52   427.5    6.5      35.767
2013    6       11     2   9    3.52   427.5    6.5      35.768
2013    6       11     2  15    3.52   427.6    6.5      35.769
2013    6       11     2  22    3.52   427.6    6.5      35.770
2013    6       11     2  28    3.51   427.6    6.5      35.771
2013    6       11     2  35    3.51   427.7    6.5      35.771
2013    6       11     2  41    3.51   427.7    6.5      35.771
2013    6       11     2  48    3.51   427.7    6.5      35.772
2013    6       11     2  54    3.51   427.8    6.5      35.772
2013    6       11     3   1    3.51   427.8    6.5      35.773
2013    6       11     3   7    3.51   427.8    6.5      35.773
2013    6       11     3  14    3.51   427.9    6.5      35.773
2013    6       11     3  21    3.51   427.9    6.5      35.774
2013    6       11     3  27    3.51   427.9    6.5      35.774
2013    6       11     3  34    3.51   428.0    6.5      35.775
2013    6       11     3  40    3.51   428.0    6.5      35.775
2013    6       11     3  47    3.50   428.0    6.5      35.776
2013    6       11     3  53    3.50   428.1    6.5      35.778
2013    6       11     4   0    3.50   428.1    6.5      35.779
2013    6       11     4   6    3.50   428.1    6.5      35.781
2013    6       11     4  13    3.50   428.1    6.5      35.782
2013    6       11     4  19    3.50   428.2    6.5      35.784
2013    6       11     4  26    3.50   428.2    6.5      35.786
2013    6       11     4  32    3.50   428.2    6.5      35.788
2013    6       11     4  39    3.50   428.3    6.5      35.790
2013    6       11     4  45    3.50   428.3    6.5      35.792
2013    6       11     4  52    3.50   428.3    6.5      35.794
2013    6       11     4  59    3.49   428.4    6.5      35.796
2013    6       11     5   5    3.49   428.4    6.5      35.798
2013    6       11     5  12    3.49   428.4    6.5      35.799
2013    6       11     5  18    3.49   428.5    6.5      35.800
2013    6       11     5  25    3.49   428.5    6.5      35.802
2013    6       11     5  31    3.49   428.5    6.5      35.802
2013    6       11     5  38    3.49   428.6    6.5      35.803
2013    6       11     5  44    3.49   428.6    6.5      35.803
2013    6       11     5  51    3.49   428.6    6.5      35.804
2013    6       11     5  57    3.48   428.6    6.4      35.804
2013    6       11     6   4    3.48   428.7    6.4      35.804
2013    6       11     6  10    3.48   428.7    6.4      35.804
2013    6       11     6  17    3.48   428.7    6.4      35.804
2013    6       11     6  23    3.48   428.8    6.4      35.804
2013    6       11     6  30    3.48   428.8    6.4      35.803
2013    6       11     6  37    3.48   428.8    6.4      35.803
2013    6       11     6  43    3.48   428.9    6.4      35.802
2013    6       11     6  50    3.47   428.9    6.4      35.802
2013    6       11     6  56    3.47   428.9    6.4      35.801
2013    6       11     7   3    3.47   428.9    6.4      35.801
2013    6       11     7   9    3.47   429.0    6.4      35.800
2013    6       11     7  16    3.47   429.0    6.4      35.800
2013    6       11     7  22    3.47   429.0    6.4      35.799
2013    6       11     7  29    3.47   429.1    6.4      35.798
2013    6       11     7  35    3.47   429.1    6.4      35.797
2013    6       11     7  42    3.46   429.1    6.4      35.796
2013    6       11     7  48    3.46   429.2    6.4      35.795
2013    6       11     7  55    3.46   429.2    6.4      35.794
2013    6       11     8   2    3.46   429.2    6.4      35.792
2013    6       11     8   8    3.46   429.3    6.4      35.791
2013    6       11     8  15    3.46   429.3    6.4      35.789
2013    6       11     8  21    3.46   429.3    6.4      35.787
2013    6       11     8  28    3.45   429.4    6.4      35.785
2013    6       11     8  34    3.45   429.4    6.4      35.782
2013    6       11     8  41    3.45   429.4    6.4      35.779
2013    6       11     8  47    3.45   429.5    6.4      35.776
2013    6       11     8  54    3.45   429.5    6.4      35.772
2013    6       11     9   0    3.45   429.5    6.4      35.769
2013    6       11     9   7    3.45   429.5    6.4      35.765
2013    6       11     9  13    3.44   429.6    6.4      35.760
2013    6       11     9  20    3.44   429.6    6.3      35.755
2013    6       11     9  26    3.44   429.6    6.3      35.750
2013    6       11     9  33    3.44   429.7    6.3      35.745
2013    6       11     9  40    3.44   429.7    6.3      35.739
2013    6       11     9  46    3.44   429.7    6.3      35.733
2013    6       11     9  53    3.43   429.7    6.3      35.726
2013    6       11     9  59    3.43   429.8    6.3      35.720
2013    6       11    10   6    3.43   429.8    6.3      35.712
2013    6       11    10  12    3.43   429.8    6.3      35.705
2013    6       11    10  19    3.43   429.9    6.3      35.697
2013    6       11    10  25    3.43   429.9    6.3      35.689
2013    6       11    10  32    3.42   429.9    6.3      35.681
2013    6       11    10  38    3.42   429.9    6.3      35.673
2013    6       11    10  45    3.42   430.0    6.3      35.664
2013    6       11    10  51    3.42   430.0    6.3      35.655
2013    6       11    10  58    3.42   430.0    6.3      35.645
2013    6       11    11   4    3.42   430.0    6.3      35.635
2013    6       11    11  11    3.41   430.1    6.3      35.625
2013    6       11    11  17    3.41   430.1    6.3      35.615
2013    6       11    11  24    3.41   430.1    6.3      35.605
2013    6       11    11  31    3.41   430.1    6.3      35.594
2013    6       11    11  37    3.41   430.1    6.3      35.583
2013    6       11    11  44    3.40   430.2    6.3      35.572
2013    6       11    11  50    3.40   430.2    6.3      35.561
2013    6       11    11  57    3.40   430.2    6.2      35.549
2013    6       11    12   3    3.40   430.2    6.2      35.537
2013    6       11    12  10    3.40   430.2    6.2      35.526
2013    6       11    12  16    3.40   430.2    6.2      35.513
2013    6       11    12  23    3.39   430.3    6.2      35.501
2013    6       11    12  29    3.39   430.3    6.2      35.488
2013    6       11    12  36    3.39   430.3    6.2      35.476
2013    6       11    12  42    3.39   430.3    6.2      35.463
2013    6       11    12  49    3.39   430.3    6.2      35.450
2013    6       11    12  55    3.38   430.3    6.2      35.437
2013    6       11    13   2    3.38   430.3    6.2      35.424
2013    6       11    13   9    3.38   430.4    6.2      35.410
2013    6       11    13  15    3.38   430.4    6.2      35.397
2013    6       11    13  22    3.38   430.4    6.2      35.383
2013    6       11    13  28    3.37   430.4    6.2      35.370
2013    6       11    13  35    3.37   430.4    6.2      35.356
2013    6       11    13  41    3.37   430.4    6.2      35.342
2013    6       11    13  48    3.37   430.4    6.2      35.329
2013    6       11    13  54    3.37   430.4    6.2      35.315
2013    6       11    14   1    3.36   430.4    6.2      35.301
2013    6       11    14   7    3.36   430.4    6.2      35.287
2013    6       11    14  14    3.36   430.5    6.2      35.273
2013    6       11    14  20    3.36   430.5    6.1      35.259
2013    6       11    14  27    3.36   430.5    6.1      35.245
2013    6       11    14  33    3.35   430.5    6.1      35.232
2013    6       11    14  40    3.35   430.5    6.1      35.218
2013    6       11    14  47    3.35   430.5    6.1      35.204
2013    6       11    14  53    3.35   430.5    6.1      35.191
2013    6       11    15   0    3.35   430.5    6.1      35.177
2013    6       11    15   6    3.34   430.5    6.1      35.164
2013    6       11    15  13    3.34   430.5    6.1      35.151
2013    6       11    15  19    3.34   430.5    6.1      35.138
2013    6       11    15  26    3.34   430.5    6.1      35.126
2013    6       11    15  32    3.34   430.5    6.1      35.113
2013    6       11    15  39    3.33   430.5    6.1      35.101
2013    6       11    15  45    3.33   430.5    6.1      35.089
2013    6       11    15  52    3.33   430.5    6.1      35.077
2013    6       11    15  58    3.33   430.5    6.1      35.066
2013    6       11    16   5    3.33   430.5    6.1      35.055
2013    6       11    16  12    3.33   430.5    6.1      35.043
2013    6       11    16  18    3.32   430.5    6.1      35.033
2013    6       11    16  25    3.32   430.5    6.1      35.022
2013    6       11    16  31    3.32   430.5    6.1      35.011
2013    6       11    16  38    3.32   430.5    6.1      35.001
2013    6       11    16  44    3.32   430.5    6.1      34.990
2013    6       11    16  51    3.32   430.5    6.1      34.980
2013    6       11    16  57    3.31   430.5    6.1      34.969
2013    6       11    17   4    3.31   430.5    6.1      34.959
2013    6       11    17  10    3.31   430.5    6.1      34.949
2013    6       11    17  17    3.31   430.5    6.1      34.939
2013    6       11    17  23    3.31   430.5    6.1      34.929
2013    6       11    17  30    3.31   430.5    6.1      34.919
2013    6       11    17  36    3.30   430.5    6.1      34.908
2013    6       11    17  43    3.30   430.5    6.1      34.898
2013    6       11    17  50    3.30   430.5    6.1      34.888
2013    6       11    17  56    3.30   430.5    6.1      34.877
2013    6       11    18   3    3.30   430.5    6.0      34.866
2013    6       11    18   9    3.29   430.5    6.0      34.855
2013    6       11    18  16    3.29   430.5    6.0      34.844
2013    6       11    18  22    3.29   430.5    6.0      34.833
2013    6       11    18  29    3.29   430.5    6.0      34.822
2013    6       11    18  35    3.29   430.5    6.0      34.810
2013    6       11    18  42    3.29   430.5    6.0      34.798
2013    6       11    18  48    3.28   430.5    6.0      34.786
2013    6       11    18  55    3.28   430.5    6.0      34.773
2013    6       11    19   1    3.28   430.5    6.0      34.760
2013    6       11    19   8    3.28   430.5    6.0      34.747
2013    6       11    19  14    3.28   430.5    6.0      34.734
2013    6       11    19  21    3.27   430.5    6.0      34.721
2013    6       11    19  27    3.27   430.4    6.0      34.707
2013    6       11    19  34    3.27   430.4    6.0      34.693
2013    6       11    19  41    3.27   430.4    6.0      34.679
2013    6       11    19  47    3.27   430.4    6.0      34.664
2013    6       11    19  54    3.26   430.4    6.0      34.650
2013    6       11    20   0    3.26   430.4    6.0      34.635
2013    6       11    20   7    3.26   430.4    6.0      34.620
2013    6       11    20  13    3.26   430.4    6.0      34.605
2013    6       11    20  20    3.26   430.4    6.0      34.590
2013    6       11    20  26    3.25   430.4    6.0      34.575
2013    6       11    20  33    3.25   430.4    6.0      34.559
2013    6       11    20  39    3.25   430.3    6.0      34.544
2013    6       11    20  46    3.25   430.3    6.0      34.528
2013    6       11    20  52    3.25   430.3    6.0      34.512
2013    6       11    20  59    3.25   430.3    6.0      34.496
2013    6       11    21   6    3.24   430.3    6.0      34.480
2013    6       11    21  12    3.24   430.3    6.0      34.464
2013    6       11    21  19    3.24   430.3    6.0      34.448
2013    6       11    21  25    3.24   430.2    6.0      34.432
2013    6       11    21  32    3.24   430.2    6.0      34.416
2013    6       11    21  38    3.23   430.2    6.0      34.400
2013    6       11    21  45    3.23   430.2    6.0      34.383
2013    6       11    21  51    3.23   430.2    5.9      34.367
2013    6       11    21  58    3.23   430.2    5.9      34.351
2013    6       11    22   4    3.23   430.1    5.9      34.335
2013    6       11    22  11    3.22   430.1    5.9      34.319
2013    6       11    22  17    3.22   430.1    5.9      34.303
2013    6       11    22  24    3.22   430.1    5.9      34.288
2013    6       11    22  31    3.22   430.1    5.9      34.272
2013    6       11    22  37    3.22   430.0    5.9      34.257
2013    6       11    22  44    3.22   430.0    5.9      34.242
2013    6       11    22  50    3.21   430.0    5.9      34.227
2013    6       11    22  57    3.21   430.0    5.9      34.213
2013    6       11    23   3    3.21   430.0    5.9      34.199
2013    6       11    23  10    3.21   429.9    5.9      34.185
2013    6       11    23  16    3.21   429.9    5.9      34.172
2013    6       11    23  23    3.20   429.9    5.9      34.158
2013    6       11    23  29    3.20   429.9    5.9      34.146
2013    6       11    23  36    3.20   429.8    5.9      34.133
2013    6       11    23  42    3.20   429.8    5.9      34.122
2013    6       11    23  49    3.20   429.8    5.9      34.110
2013    6       11    23  55    3.20   429.8    5.9      34.099
2013    6       12     0   2    3.20   429.8    5.9      34.088
