year    month   day   hour  minute  B_enl V_enl   n_enl       T_enl
[year] [month] [day] [hour][minute] [nT]  [km/s]  [cm-3]      [kK]
2013    6        3     0   4    3.79   638.6    3.1      60.707
2013    6        3     0  11    3.78   638.6    3.1      60.649
2013    6        3     0  17    3.78   638.5    3.1      60.591
2013    6        3     0  24    3.78   638.5    3.1      60.534
2013    6        3     0  30    3.77   638.5    3.1      60.477
2013    6        3     0  37    3.77   638.4    3.0      60.421
2013    6        3     0  43    3.76   638.4    3.0      60.364
2013    6        3     0  50    3.76   638.4    3.0      60.309
2013    6        3     0  57    3.75   638.3    3.0      60.253
2013    6        3     1   3    3.75   638.3    3.0      60.198
2013    6        3     1  10    3.75   638.2    3.0      60.143
2013    6        3     1  16    3.74   638.2    3.0      60.089
2013    6        3     1  23    3.74   638.1    3.0      60.035
2013    6        3     1  30    3.73   638.1    3.0      59.981
2013    6        3     1  36    3.73   638.1    3.0      59.927
2013    6        3     1  43    3.73   638.0    3.0      59.873
2013    6        3     1  49    3.72   638.0    3.0      59.819
2013    6        3     1  56    3.72   637.9    3.0      59.766
2013    6        3     2   2    3.72   637.9    3.0      59.712
2013    6        3     2   9    3.71   637.8    3.0      59.659
2013    6        3     2  16    3.71   637.8    3.0      59.605
2013    6        3     2  22    3.70   637.7    3.0      59.552
2013    6        3     2  29    3.70   637.7    3.0      59.499
2013    6        3     2  35    3.70   637.7    3.0      59.446
2013    6        3     2  42    3.69   637.6    3.0      59.394
2013    6        3     2  48    3.69   637.6    3.0      59.341
2013    6        3     2  55    3.69   637.5    3.0      59.290
2013    6        3     3   2    3.68   637.4    3.0      59.238
2013    6        3     3   8    3.68   637.4    3.0      59.187
2013    6        3     3  15    3.67   637.3    3.0      59.137
2013    6        3     3  21    3.67   637.3    3.0      59.087
2013    6        3     3  28    3.67   637.2    3.0      59.038
2013    6        3     3  34    3.66   637.2    3.0      58.990
2013    6        3     3  41    3.66   637.1    3.0      58.942
2013    6        3     3  48    3.66   637.1    3.0      58.895
2013    6        3     3  54    3.65   637.0    3.0      58.849
2013    6        3     4   1    3.65   636.9    3.0      58.803
2013    6        3     4   7    3.65   636.9    3.0      58.759
2013    6        3     4  14    3.64   636.8    3.0      58.715
2013    6        3     4  21    3.64   636.8    3.0      58.672
2013    6        3     4  27    3.64   636.7    3.0      58.630
2013    6        3     4  34    3.63   636.6    3.0      58.588
2013    6        3     4  40    3.63   636.6    3.0      58.547
2013    6        3     4  47    3.63   636.5    3.0      58.506
2013    6        3     4  53    3.62   636.4    3.0      58.465
2013    6        3     5   0    3.62   636.4    3.0      58.426
2013    6        3     5   7    3.62   636.3    3.0      58.386
2013    6        3     5  13    3.62   636.2    3.0      58.346
2013    6        3     5  20    3.61   636.2    3.0      58.307
2013    6        3     5  26    3.61   636.1    3.0      58.268
2013    6        3     5  33    3.61   636.0    3.0      58.228
2013    6        3     5  39    3.60   636.0    3.0      58.189
2013    6        3     5  46    3.60   635.9    2.9      58.149
2013    6        3     5  53    3.60   635.8    2.9      58.110
2013    6        3     5  59    3.59   635.8    2.9      58.070
2013    6        3     6   6    3.59   635.7    2.9      58.030
2013    6        3     6  12    3.59   635.6    2.9      57.990
2013    6        3     6  19    3.58   635.5    2.9      57.950
2013    6        3     6  26    3.58   635.5    2.9      57.909
2013    6        3     6  32    3.58   635.4    2.9      57.868
2013    6        3     6  39    3.58   635.3    2.9      57.827
2013    6        3     6  45    3.57   635.2    2.9      57.786
2013    6        3     6  52    3.57   635.1    2.9      57.745
2013    6        3     6  58    3.57   635.1    2.9      57.704
2013    6        3     7   5    3.56   635.0    2.9      57.662
2013    6        3     7  12    3.56   634.9    2.9      57.620
2013    6        3     7  18    3.56   634.8    2.9      57.578
2013    6        3     7  25    3.55   634.7    2.9      57.537
2013    6        3     7  31    3.55   634.6    2.9      57.494
2013    6        3     7  38    3.55   634.5    2.9      57.453
2013    6        3     7  45    3.55   634.5    2.9      57.410
2013    6        3     7  51    3.54   634.4    2.9      57.369
2013    6        3     7  58    3.54   634.3    2.9      57.326
2013    6        3     8   4    3.54   634.2    2.9      57.285
2013    6        3     8  11    3.54   634.1    2.9      57.242
2013    6        3     8  17    3.53   634.0    2.9      57.201
2013    6        3     8  24    3.53   633.9    2.9      57.159
2013    6        3     8  31    3.53   633.8    2.9      57.117
2013    6        3     8  37    3.52   633.7    2.9      57.075
2013    6        3     8  44    3.52   633.6    2.9      57.033
2013    6        3     8  50    3.52   633.5    2.9      56.991
2013    6        3     8  57    3.52   633.5    2.9      56.949
2013    6        3     9   4    3.51   633.4    2.9      56.907
2013    6        3     9  10    3.51   633.3    2.9      56.866
2013    6        3     9  17    3.51   633.2    2.9      56.824
2013    6        3     9  23    3.51   633.1    2.9      56.782
2013    6        3     9  30    3.50   633.0    2.9      56.740
2013    6        3     9  36    3.50   632.9    2.9      56.698
2013    6        3     9  43    3.50   632.8    2.9      56.656
2013    6        3     9  50    3.50   632.7    2.9      56.614
2013    6        3     9  56    3.49   632.6    2.9      56.572
2013    6        3    10   3    3.49   632.5    2.9      56.530
2013    6        3    10   9    3.49   632.4    2.9      56.489
2013    6        3    10  16    3.49   632.3    2.9      56.447
2013    6        3    10  22    3.48   632.2    2.9      56.405
2013    6        3    10  29    3.48   632.1    2.9      56.364
2013    6        3    10  36    3.48   632.0    2.9      56.323
2013    6        3    10  42    3.48   631.9    2.9      56.282
2013    6        3    10  49    3.47   631.8    2.9      56.241
2013    6        3    10  55    3.47   631.7    2.9      56.200
2013    6        3    11   2    3.47   631.6    2.9      56.159
2013    6        3    11   8    3.47   631.5    2.9      56.119
2013    6        3    11  15    3.47   631.4    2.9      56.078
2013    6        3    11  22    3.46   631.3    2.9      56.038
2013    6        3    11  28    3.46   631.2    2.9      55.998
2013    6        3    11  35    3.46   631.1    2.9      55.959
2013    6        3    11  41    3.46   631.0    2.9      55.919
2013    6        3    11  48    3.45   630.9    2.9      55.880
2013    6        3    11  54    3.45   630.8    2.9      55.841
2013    6        3    12   1    3.45   630.8    2.9      55.802
2013    6        3    12   8    3.45   630.7    2.9      55.764
2013    6        3    12  14    3.44   630.6    2.9      55.725
2013    6        3    12  21    3.44   630.5    2.9      55.687
2013    6        3    12  27    3.44   630.4    2.9      55.648
2013    6        3    12  34    3.44   630.2    2.9      55.610
2013    6        3    12  41    3.44   630.1    2.9      55.572
2013    6        3    12  47    3.43   630.0    2.9      55.534
2013    6        3    12  54    3.43   629.9    2.9      55.496
2013    6        3    13   0    3.43   629.8    2.9      55.458
2013    6        3    13   7    3.43   629.7    2.9      55.420
2013    6        3    13  13    3.42   629.6    2.9      55.382
2013    6        3    13  20    3.42   629.5    2.9      55.345
2013    6        3    13  27    3.42   629.4    2.9      55.308
2013    6        3    13  33    3.42   629.3    2.9      55.271
2013    6        3    13  40    3.41   629.2    2.9      55.235
2013    6        3    13  46    3.41   629.1    2.9      55.199
2013    6        3    13  53    3.41   629.0    2.9      55.163
2013    6        3    13  59    3.41   628.8    2.9      55.128
2013    6        3    14   6    3.41   628.7    2.9      55.093
2013    6        3    14  13    3.40   628.6    2.9      55.060
2013    6        3    14  19    3.40   628.5    2.9      55.026
2013    6        3    14  26    3.40   628.4    2.9      54.993
2013    6        3    14  32    3.40   628.3    2.9      54.961
2013    6        3    14  39    3.39   628.1    2.9      54.930
2013    6        3    14  46    3.39   628.0    2.9      54.899
2013    6        3    14  52    3.39   627.9    2.9      54.868
2013    6        3    14  59    3.39   627.8    2.9      54.838
2013    6        3    15   5    3.39   627.7    2.9      54.809
2013    6        3    15  12    3.38   627.6    2.9      54.780
2013    6        3    15  18    3.38   627.5    2.9      54.751
2013    6        3    15  25    3.38   627.3    2.9      54.722
2013    6        3    15  32    3.38   627.2    2.9      54.694
2013    6        3    15  38    3.38   627.1    2.9      54.666
2013    6        3    15  45    3.37   627.0    2.9      54.638
2013    6        3    15  51    3.37   626.9    2.9      54.610
2013    6        3    15  58    3.37   626.7    2.9      54.582
2013    6        3    16   5    3.37   626.6    2.9      54.555
2013    6        3    16  11    3.37   626.5    2.9      54.527
2013    6        3    16  18    3.36   626.4    2.9      54.500
2013    6        3    16  24    3.36   626.3    2.9      54.473
2013    6        3    16  31    3.36   626.2    2.9      54.445
2013    6        3    16  37    3.36   626.0    2.9      54.418
2013    6        3    16  44    3.36   625.9    2.9      54.390
2013    6        3    16  51    3.35   625.8    2.9      54.361
2013    6        3    16  57    3.35   625.7    2.9      54.333
2013    6        3    17   4    3.35   625.6    2.9      54.304
2013    6        3    17  10    3.35   625.4    2.9      54.274
2013    6        3    17  17    3.35   625.3    2.9      54.244
2013    6        3    17  23    3.35   625.2    2.9      54.214
2013    6        3    17  30    3.34   625.1    2.9      54.183
2013    6        3    17  37    3.34   625.0    2.9      54.152
2013    6        3    17  43    3.34   624.9    2.9      54.120
2013    6        3    17  50    3.34   624.7    2.9      54.088
2013    6        3    17  56    3.34   624.6    2.9      54.055
2013    6        3    18   3    3.33   624.5    2.9      54.022
2013    6        3    18   9    3.33   624.4    2.9      53.987
2013    6        3    18  16    3.33   624.3    2.9      53.953
2013    6        3    18  23    3.33   624.1    2.9      53.917
2013    6        3    18  29    3.33   624.0    2.9      53.880
2013    6        3    18  36    3.33   623.9    2.9      53.843
2013    6        3    18  42    3.32   623.8    2.9      53.805
2013    6        3    18  49    3.32   623.7    2.9      53.767
2013    6        3    18  56    3.32   623.6    2.9      53.728
2013    6        3    19   2    3.32   623.4    2.9      53.688
2013    6        3    19   9    3.32   623.3    2.9      53.648
2013    6        3    19  15    3.31   623.2    2.9      53.607
2013    6        3    19  22    3.31   623.1    2.9      53.566
2013    6        3    19  28    3.31   623.0    2.9      53.524
2013    6        3    19  35    3.31   622.8    2.9      53.482
2013    6        3    19  42    3.31   622.7    2.9      53.439
2013    6        3    19  48    3.31   622.6    2.8      53.396
2013    6        3    19  55    3.30   622.5    2.8      53.352
2013    6        3    20   1    3.30   622.4    2.8      53.309
2013    6        3    20   8    3.30   622.2    2.8      53.265
2013    6        3    20  14    3.30   622.1    2.8      53.220
2013    6        3    20  21    3.30   622.0    2.8      53.176
2013    6        3    20  28    3.29   621.9    2.8      53.132
2013    6        3    20  34    3.29   621.7    2.8      53.087
2013    6        3    20  41    3.29   621.6    2.8      53.043
2013    6        3    20  47    3.29   621.5    2.8      52.999
2013    6        3    20  54    3.29   621.4    2.8      52.955
2013    6        3    21   1    3.28   621.2    2.8      52.912
2013    6        3    21   7    3.28   621.1    2.8      52.869
2013    6        3    21  14    3.28   621.0    2.8      52.827
2013    6        3    21  20    3.28   620.8    2.8      52.785
2013    6        3    21  27    3.28   620.7    2.8      52.744
2013    6        3    21  33    3.27   620.6    2.8      52.704
2013    6        3    21  40    3.27   620.4    2.8      52.665
2013    6        3    21  47    3.27   620.3    2.8      52.626
2013    6        3    21  53    3.27   620.2    2.8      52.589
2013    6        3    22   0    3.27   620.0    2.8      52.552
2013    6        3    22   6    3.27   619.9    2.8      52.516
2013    6        3    22  13    3.26   619.8    2.8      52.482
2013    6        3    22  20    3.26   619.6    2.8      52.448
2013    6        3    22  26    3.26   619.5    2.8      52.414
2013    6        3    22  33    3.26   619.4    2.8      52.382
2013    6        3    22  39    3.26   619.2    2.8      52.350
2013    6        3    22  46    3.25   619.1    2.8      52.319
2013    6        3    22  52    3.25   619.0    2.8      52.288
2013    6        3    22  59    3.25   618.8    2.8      52.258
2013    6        3    23   6    3.25   618.7    2.8      52.228
2013    6        3    23  12    3.25   618.6    2.8      52.200
2013    6        3    23  19    3.25   618.4    2.8      52.172
2013    6        3    23  25    3.24   618.3    2.8      52.145
2013    6        3    23  32    3.24   618.2    2.8      52.118
2013    6        3    23  38    3.24   618.0    2.8      52.093
2013    6        3    23  45    3.24   617.9    2.8      52.068
2013    6        3    23  52    3.24   617.8    2.8      52.044
2013    6        3    23  58    3.24   617.6    2.8      52.020
2013    6        4     0   5    3.23   617.5    2.8      51.996
2013    6        4     0  11    3.23   617.3    2.8      51.973
2013    6        4     0  18    3.23   617.2    2.8      51.951
2013    6        4     0  25    3.23   617.1    2.8      51.928
2013    6        4     0  31    3.23   616.9    2.8      51.906
2013    6        4     0  38    3.23   616.8    2.8      51.885
2013    6        4     0  44    3.22   616.6    2.8      51.863
2013    6        4     0  51    3.22   616.5    2.8      51.841
2013    6        4     0  57    3.22   616.4    2.8      51.820
2013    6        4     1   4    3.22   616.2    2.8      51.799
2013    6        4     1  11    3.22   616.1    2.8      51.778
2013    6        4     1  17    3.22   616.0    2.8      51.757
2013    6        4     1  24    3.21   615.8    2.9      51.735
2013    6        4     1  30    3.21   615.7    2.9      51.712
2013    6        4     1  37    3.21   615.6    2.9      51.688
2013    6        4     1  43    3.21   615.4    2.9      51.664
2013    6        4     1  50    3.21   615.3    2.9      51.638
2013    6        4     1  57    3.21   615.2    2.9      51.612
2013    6        4     2   3    3.21   615.0    2.9      51.584
2013    6        4     2  10    3.20   614.9    2.9      51.556
2013    6        4     2  16    3.20   614.8    2.9      51.526
2013    6        4     2  23    3.20   614.6    2.9      51.496
2013    6        4     2  29    3.20   614.5    2.9      51.464
2013    6        4     2  36    3.20   614.4    2.9      51.432
2013    6        4     2  43    3.20   614.2    2.9      51.399
2013    6        4     2  49    3.19   614.1    2.9      51.365
2013    6        4     2  56    3.19   614.0    2.9      51.330
2013    6        4     3   2    3.19   613.9    2.9      51.295
2013    6        4     3   9    3.19   613.7    2.9      51.259
2013    6        4     3  15    3.19   613.6    2.9      51.222
2013    6        4     3  22    3.18   613.5    2.9      51.185
2013    6        4     3  29    3.18   613.3    2.9      51.147
2013    6        4     3  35    3.18   613.2    2.9      51.108
2013    6        4     3  42    3.18   613.1    2.8      51.069
2013    6        4     3  48    3.18   612.9    2.8      51.029
2013    6        4     3  55    3.18   612.8    2.8      50.989
2013    6        4     4   2    3.17   612.7    2.8      50.948
2013    6        4     4   8    3.17   612.5    2.8      50.906
2013    6        4     4  15    3.17   612.4    2.8      50.865
2013    6        4     4  21    3.17   612.3    2.8      50.822
2013    6        4     4  28    3.17   612.1    2.8      50.779
2013    6        4     4  34    3.17   612.0    2.8      50.736
2013    6        4     4  41    3.16   611.9    2.8      50.693
2013    6        4     4  48    3.16   611.7    2.8      50.649
2013    6        4     4  54    3.16   611.6    2.8      50.605
2013    6        4     5   1    3.16   611.4    2.8      50.560
2013    6        4     5   7    3.16   611.3    2.8      50.516
2013    6        4     5  14    3.16   611.2    2.8      50.472
2013    6        4     5  21    3.15   611.0    2.8      50.427
2013    6        4     5  27    3.15   610.9    2.8      50.383
2013    6        4     5  34    3.15   610.7    2.8      50.338
2013    6        4     5  40    3.15   610.6    2.8      50.294
2013    6        4     5  47    3.15   610.4    2.8      50.250
2013    6        4     5  53    3.15   610.3    2.8      50.207
2013    6        4     6   0    3.14   610.1    2.8      50.164
2013    6        4     6   7    3.14   610.0    2.8      50.121
2013    6        4     6  13    3.14   609.8    2.8      50.078
2013    6        4     6  20    3.14   609.7    2.8      50.037
2013    6        4     6  26    3.14   609.5    2.8      49.996
2013    6        4     6  33    3.14   609.4    2.8      49.956
2013    6        4     6  40    3.13   609.2    2.8      49.917
2013    6        4     6  46    3.13   609.0    2.8      49.878
2013    6        4     6  53    3.13   608.9    2.8      49.841
2013    6        4     6  59    3.13   608.7    2.8      49.805
2013    6        4     7   6    3.13   608.5    2.8      49.770
2013    6        4     7  12    3.13   608.4    2.8      49.736
2013    6        4     7  19    3.12   608.2    2.8      49.704
2013    6        4     7  26    3.12   608.1    2.8      49.672
2013    6        4     7  32    3.12   607.9    2.8      49.642
2013    6        4     7  39    3.12   607.7    2.8      49.612
2013    6        4     7  45    3.12   607.6    2.8      49.584
2013    6        4     7  52    3.12   607.4    2.8      49.556
2013    6        4     7  58    3.12   607.2    2.8      49.530
2013    6        4     8   5    3.12   607.1    2.8      49.504
2013    6        4     8  12    3.11   606.9    2.8      49.479
2013    6        4     8  18    3.11   606.7    2.8      49.454
2013    6        4     8  25    3.11   606.6    2.8      49.430
2013    6        4     8  31    3.11   606.4    2.8      49.407
2013    6        4     8  38    3.11   606.2    2.8      49.384
2013    6        4     8  44    3.11   606.1    2.8      49.361
2013    6        4     8  51    3.11   605.9    2.8      49.337
2013    6        4     8  58    3.11   605.7    2.8      49.314
2013    6        4     9   4    3.11   605.6    2.9      49.290
2013    6        4     9  11    3.10   605.4    2.9      49.266
2013    6        4     9  17    3.10   605.2    2.9      49.241
2013    6        4     9  24    3.10   605.1    2.9      49.216
2013    6        4     9  30    3.10   604.9    2.9      49.191
2013    6        4     9  37    3.10   604.7    2.9      49.165
2013    6        4     9  44    3.10   604.6    2.9      49.139
2013    6        4     9  50    3.10   604.4    2.9      49.113
2013    6        4     9  57    3.10   604.2    2.9      49.087
2013    6        4    10   3    3.09   604.1    2.9      49.060
2013    6        4    10  10    3.09   603.9    2.9      49.033
2013    6        4    10  17    3.09   603.7    2.9      49.006
2013    6        4    10  23    3.09   603.6    2.9      48.979
2013    6        4    10  30    3.09   603.4    2.9      48.952
2013    6        4    10  36    3.09   603.3    2.9      48.925
2013    6        4    10  43    3.09   603.1    2.9      48.899
2013    6        4    10  49    3.09   602.9    2.9      48.872
2013    6        4    10  56    3.08   602.8    2.9      48.845
2013    6        4    11   3    3.08   602.6    2.9      48.818
2013    6        4    11   9    3.08   602.5    2.9      48.791
2013    6        4    11  16    3.08   602.3    2.9      48.764
2013    6        4    11  22    3.08   602.1    2.9      48.738
2013    6        4    11  29    3.08   602.0    2.9      48.711
2013    6        4    11  35    3.08   601.8    2.9      48.684
2013    6        4    11  42    3.08   601.7    2.9      48.656
2013    6        4    11  49    3.07   601.5    2.9      48.629
2013    6        4    11  55    3.07   601.4    2.9      48.602
2013    6        4    12   2    3.07   601.2    2.9      48.574
2013    6        4    12   8    3.07   601.0    2.9      48.546
2013    6        4    12  15    3.07   600.9    2.9      48.517
2013    6        4    12  22    3.07   600.7    2.9      48.488
2013    6        4    12  28    3.07   600.6    2.9      48.459
2013    6        4    12  35    3.07   600.4    2.9      48.430
2013    6        4    12  41    3.06   600.2    2.9      48.399
2013    6        4    12  48    3.06   600.1    2.9      48.369
2013    6        4    12  54    3.06   599.9    2.9      48.338
2013    6        4    13   1    3.06   599.7    2.9      48.307
2013    6        4    13   8    3.06   599.6    2.9      48.275
2013    6        4    13  14    3.06   599.4    2.9      48.243
2013    6        4    13  21    3.06   599.2    2.9      48.211
2013    6        4    13  27    3.06   599.1    2.9      48.178
2013    6        4    13  34    3.05   598.9    2.9      48.144
2013    6        4    13  41    3.05   598.7    2.9      48.111
2013    6        4    13  47    3.05   598.5    2.9      48.078
2013    6        4    13  54    3.05   598.3    2.9      48.044
2013    6        4    14   0    3.05   598.2    2.9      48.010
2013    6        4    14   7    3.05   598.0    2.9      47.976
2013    6        4    14  13    3.05   597.8    2.9      47.943
2013    6        4    14  20    3.05   597.6    2.9      47.909
2013    6        4    14  27    3.05   597.4    2.9      47.876
2013    6        4    14  33    3.04   597.3    2.9      47.843
2013    6        4    14  40    3.04   597.1    2.9      47.809
2013    6        4    14  46    3.04   596.9    2.9      47.777
2013    6        4    14  53    3.04   596.7    2.9      47.744
2013    6        4    14  59    3.04   596.5    2.9      47.712
2013    6        4    15   6    3.04   596.3    2.9      47.679
2013    6        4    15  13    3.04   596.2    2.9      47.647
2013    6        4    15  19    3.04   596.0    2.9      47.616
2013    6        4    15  26    3.04   595.8    2.9      47.584
2013    6        4    15  32    3.04   595.6    2.9      47.553
2013    6        4    15  39    3.04   595.4    2.9      47.521
2013    6        4    15  45    3.04   595.2    2.9      47.490
2013    6        4    15  52    3.03   595.0    2.9      47.459
2013    6        4    15  59    3.03   594.9    2.9      47.428
2013    6        4    16   5    3.03   594.7    2.9      47.398
2013    6        4    16  12    3.03   594.5    2.9      47.367
2013    6        4    16  18    3.03   594.3    2.9      47.337
2013    6        4    16  25    3.03   594.1    2.9      47.306
2013    6        4    16  32    3.03   593.9    2.9      47.276
2013    6        4    16  38    3.03   593.7    2.9      47.247
2013    6        4    16  45    3.03   593.5    2.9      47.217
2013    6        4    16  51    3.03   593.3    2.9      47.187
2013    6        4    16  58    3.03   593.2    2.9      47.158
2013    6        4    17   4    3.03   593.0    2.9      47.129
2013    6        4    17  11    3.03   592.8    2.9      47.100
2013    6        4    17  18    3.02   592.6    2.9      47.071
2013    6        4    17  24    3.02   592.4    2.9      47.043
2013    6        4    17  31    3.02   592.2    2.9      47.015
2013    6        4    17  37    3.02   592.0    2.9      46.988
2013    6        4    17  44    3.02   591.8    2.9      46.960
2013    6        4    17  50    3.02   591.6    2.9      46.934
2013    6        4    17  57    3.02   591.4    2.9      46.907
2013    6        4    18   4    3.02   591.3    2.9      46.881
2013    6        4    18  10    3.02   591.1    2.9      46.856
2013    6        4    18  17    3.02   590.9    2.9      46.831
2013    6        4    18  23    3.02   590.7    2.9      46.807
2013    6        4    18  30    3.02   590.5    2.9      46.783
2013    6        4    18  37    3.02   590.3    2.9      46.760
2013    6        4    18  43    3.02   590.1    2.9      46.737
2013    6        4    18  50    3.01   589.9    2.9      46.715
2013    6        4    18  56    3.01   589.7    2.9      46.693
2013    6        4    19   3    3.01   589.6    2.9      46.671
2013    6        4    19   9    3.01   589.4    2.9      46.651
2013    6        4    19  16    3.01   589.2    2.9      46.630
2013    6        4    19  23    3.01   589.0    2.9      46.610
2013    6        4    19  29    3.01   588.8    2.9      46.590
2013    6        4    19  36    3.01   588.6    2.9      46.570
2013    6        4    19  42    3.01   588.4    2.9      46.550
2013    6        4    19  49    3.01   588.2    3.0      46.531
2013    6        4    19  55    3.01   588.1    3.0      46.513
2013    6        4    20   2    3.01   587.9    3.0      46.494
2013    6        4    20   9    3.01   587.7    3.0      46.476
2013    6        4    20  15    3.01   587.5    3.0      46.457
2013    6        4    20  22    3.01   587.3    3.0      46.438
2013    6        4    20  28    3.00   587.1    3.0      46.419
2013    6        4    20  35    3.00   586.9    3.0      46.399
2013    6        4    20  42    3.00   586.8    3.0      46.379
2013    6        4    20  48    3.00   586.6    3.0      46.359
2013    6        4    20  55    3.00   586.4    3.0      46.339
2013    6        4    21   1    3.00   586.2    3.0      46.317
2013    6        4    21   8    3.00   586.0    3.0      46.296
2013    6        4    21  14    3.00   585.8    3.0      46.274
2013    6        4    21  21    3.00   585.7    3.0      46.252
2013    6        4    21  28    3.00   585.5    3.0      46.229
2013    6        4    21  34    3.00   585.3    3.0      46.206
2013    6        4    21  41    3.00   585.1    3.0      46.182
2013    6        4    21  47    3.00   584.9    3.0      46.158
2013    6        4    21  54    3.00   584.7    3.0      46.134
2013    6        4    22   1    3.00   584.5    3.0      46.109
2013    6        4    22   7    3.00   584.4    3.0      46.084
2013    6        4    22  14    3.00   584.2    3.0      46.058
2013    6        4    22  20    3.00   584.0    3.0      46.032
2013    6        4    22  27    2.99   583.8    3.0      46.006
2013    6        4    22  33    2.99   583.6    3.0      45.980
2013    6        4    22  40    2.99   583.4    3.0      45.954
2013    6        4    22  47    2.99   583.3    3.0      45.927
2013    6        4    22  53    2.99   583.1    3.0      45.901
2013    6        4    23   0    2.99   582.9    3.0      45.874
2013    6        4    23   6    2.99   582.7    3.0      45.848
2013    6        4    23  13    2.99   582.5    3.0      45.821
2013    6        4    23  19    2.99   582.3    3.0      45.795
2013    6        4    23  26    2.99   582.2    3.0      45.768
2013    6        4    23  33    2.99   582.0    3.0      45.742
2013    6        4    23  39    2.99   581.8    3.0      45.715
2013    6        4    23  46    2.99   581.6    3.0      45.689
2013    6        4    23  52    2.99   581.4    3.0      45.663
2013    6        4    23  59    2.99   581.2    3.0      45.637
2013    6        5     0   5    2.99   581.1    3.0      45.611
2013    6        5     0  12    2.99   580.9    3.0      45.585
2013    6        5     0  19    2.99   580.7    3.0      45.560
2013    6        5     0  25    2.99   580.5    3.0      45.534
2013    6        5     0  32    2.98   580.3    3.0      45.509
2013    6        5     0  38    2.98   580.1    3.0      45.483
2013    6        5     0  45    2.98   580.0    3.0      45.458
2013    6        5     0  51    2.98   579.8    3.0      45.432
2013    6        5     0  58    2.98   579.6    3.0      45.407
2013    6        5     1   5    2.98   579.4    3.0      45.381
2013    6        5     1  11    2.98   579.2    3.0      45.356
2013    6        5     1  18    2.98   579.0    3.0      45.330
2013    6        5     1  24    2.98   578.8    3.0      45.305
2013    6        5     1  31    2.98   578.6    3.0      45.279
2013    6        5     1  38    2.98   578.4    3.0      45.253
2013    6        5     1  44    2.98   578.2    3.0      45.228
2013    6        5     1  51    2.98   578.1    3.0      45.202
2013    6        5     1  57    2.98   577.9    3.0      45.176
2013    6        5     2   4    2.98   577.7    3.0      45.150
2013    6        5     2  10    2.98   577.5    3.0      45.125
2013    6        5     2  17    2.98   577.3    3.0      45.099
2013    6        5     2  24    2.98   577.1    3.0      45.073
2013    6        5     2  30    2.98   576.9    3.0      45.048
2013    6        5     2  37    2.98   576.7    3.0      45.023
2013    6        5     2  43    2.98   576.5    3.0      44.998
2013    6        5     2  50    2.98   576.3    3.1      44.973
2013    6        5     2  57    2.98   576.1    3.1      44.948
2013    6        5     3   3    2.98   575.9    3.1      44.923
2013    6        5     3  10    2.97   575.7    3.1      44.899
2013    6        5     3  16    2.97   575.5    3.1      44.876
2013    6        5     3  23    2.97   575.3    3.1      44.853
2013    6        5     3  29    2.97   575.2    3.1      44.830
2013    6        5     3  36    2.97   575.0    3.1      44.807
2013    6        5     3  43    2.97   574.8    3.1      44.784
2013    6        5     3  49    2.97   574.6    3.1      44.761
2013    6        5     3  56    2.97   574.4    3.1      44.738
2013    6        5     4   2    2.97   574.2    3.1      44.715
2013    6        5     4   9    2.97   574.0    3.1      44.692
2013    6        5     4  16    2.97   573.8    3.1      44.669
2013    6        5     4  22    2.97   573.6    3.1      44.647
2013    6        5     4  29    2.97   573.5    3.1      44.624
2013    6        5     4  35    2.97   573.3    3.1      44.601
2013    6        5     4  42    2.97   573.1    3.1      44.579
2013    6        5     4  48    2.97   572.9    3.1      44.556
2013    6        5     4  55    2.97   572.7    3.1      44.533
2013    6        5     5   2    2.97   572.5    3.1      44.511
2013    6        5     5   8    2.97   572.3    3.1      44.488
2013    6        5     5  15    2.97   572.2    3.1      44.466
2013    6        5     5  21    2.97   572.0    3.1      44.443
2013    6        5     5  28    2.97   571.8    3.1      44.421
2013    6        5     5  34    2.97   571.6    3.1      44.398
2013    6        5     5  41    2.97   571.4    3.1      44.375
2013    6        5     5  48    2.97   571.2    3.1      44.353
2013    6        5     5  54    2.97   571.0    3.1      44.330
2013    6        5     6   1    2.97   570.9    3.1      44.308
2013    6        5     6   7    2.97   570.7    3.1      44.285
2013    6        5     6  14    2.97   570.5    3.1      44.263
2013    6        5     6  20    2.96   570.3    3.1      44.241
2013    6        5     6  27    2.96   570.1    3.1      44.218
2013    6        5     6  34    2.96   569.9    3.1      44.196
2013    6        5     6  40    2.96   569.7    3.1      44.174
2013    6        5     6  47    2.96   569.6    3.1      44.152
2013    6        5     6  53    2.96   569.4    3.1      44.130
2013    6        5     7   0    2.96   569.2    3.1      44.108
2013    6        5     7   6    2.96   569.0    3.1      44.086
2013    6        5     7  13    2.96   568.8    3.1      44.065
2013    6        5     7  20    2.96   568.6    3.1      44.043
2013    6        5     7  26    2.96   568.4    3.1      44.022
2013    6        5     7  33    2.96   568.2    3.1      44.001
2013    6        5     7  39    2.96   568.1    3.1      43.979
2013    6        5     7  46    2.96   567.9    3.1      43.958
2013    6        5     7  52    2.96   567.7    3.1      43.937
2013    6        5     7  59    2.96   567.5    3.1      43.916
2013    6        5     8   6    2.96   567.3    3.1      43.896
2013    6        5     8  12    2.96   567.1    3.1      43.875
2013    6        5     8  19    2.96   566.9    3.1      43.854
2013    6        5     8  25    2.96   566.7    3.1      43.833
2013    6        5     8  32    2.96   566.6    3.1      43.811
2013    6        5     8  39    2.96   566.4    3.1      43.790
2013    6        5     8  45    2.96   566.2    3.1      43.768
2013    6        5     8  52    2.96   566.0    3.1      43.747
2013    6        5     8  58    2.96   565.8    3.1      43.725
2013    6        5     9   5    2.96   565.6    3.1      43.703
2013    6        5     9  11    2.96   565.4    3.1      43.681
2013    6        5     9  18    2.96   565.2    3.2      43.659
2013    6        5     9  25    2.96   565.0    3.2      43.637
2013    6        5     9  31    2.96   564.9    3.2      43.614
2013    6        5     9  38    2.96   564.7    3.2      43.591
2013    6        5     9  44    2.96   564.5    3.2      43.568
2013    6        5     9  51    2.95   564.3    3.2      43.545
2013    6        5     9  58    2.95   564.1    3.2      43.522
2013    6        5    10   4    2.95   563.9    3.2      43.498
2013    6        5    10  11    2.95   563.7    3.2      43.474
2013    6        5    10  17    2.95   563.5    3.2      43.450
2013    6        5    10  24    2.95   563.3    3.2      43.425
2013    6        5    10  30    2.95   563.2    3.2      43.401
2013    6        5    10  37    2.95   563.0    3.2      43.376
2013    6        5    10  44    2.95   562.8    3.2      43.351
2013    6        5    10  50    2.95   562.6    3.2      43.326
2013    6        5    10  57    2.95   562.4    3.2      43.301
2013    6        5    11   3    2.95   562.2    3.2      43.275
2013    6        5    11  10    2.95   562.0    3.2      43.250
2013    6        5    11  17    2.95   561.8    3.2      43.224
2013    6        5    11  23    2.95   561.6    3.2      43.199
2013    6        5    11  30    2.95   561.4    3.2      43.173
2013    6        5    11  36    2.95   561.3    3.2      43.148
2013    6        5    11  43    2.95   561.1    3.2      43.122
2013    6        5    11  49    2.95   560.9    3.2      43.097
2013    6        5    11  56    2.95   560.7    3.2      43.072
2013    6        5    12   3    2.95   560.5    3.2      43.047
2013    6        5    12   9    2.95   560.3    3.2      43.021
2013    6        5    12  16    2.95   560.1    3.2      42.996
2013    6        5    12  22    2.95   559.9    3.2      42.971
2013    6        5    12  29    2.95   559.7    3.2      42.947
2013    6        5    12  35    2.95   559.5    3.2      42.922
2013    6        5    12  42    2.95   559.4    3.2      42.897
2013    6        5    12  49    2.95   559.2    3.2      42.873
2013    6        5    12  55    2.95   559.0    3.2      42.848
2013    6        5    13   2    2.95   558.8    3.2      42.824
2013    6        5    13   8    2.95   558.6    3.2      42.799
2013    6        5    13  15    2.94   558.4    3.2      42.775
2013    6        5    13  21    2.94   558.2    3.2      42.751
2013    6        5    13  28    2.94   558.0    3.2      42.726
2013    6        5    13  35    2.94   557.8    3.2      42.702
2013    6        5    13  41    2.94   557.6    3.2      42.678
2013    6        5    13  48    2.94   557.4    3.2      42.654
2013    6        5    13  54    2.94   557.2    3.2      42.630
2013    6        5    14   1    2.94   557.0    3.2      42.607
2013    6        5    14   7    2.94   556.8    3.2      42.583
2013    6        5    14  14    2.94   556.6    3.2      42.560
2013    6        5    14  21    2.94   556.4    3.2      42.536
2013    6        5    14  27    2.94   556.2    3.2      42.513
2013    6        5    14  34    2.94   556.0    3.2      42.490
2013    6        5    14  40    2.94   555.9    3.2      42.467
2013    6        5    14  47    2.94   555.7    3.2      42.444
2013    6        5    14  54    2.94   555.5    3.2      42.422
2013    6        5    15   0    2.94   555.3    3.2      42.399
2013    6        5    15   7    2.94   555.1    3.2      42.377
2013    6        5    15  13    2.94   554.9    3.2      42.355
2013    6        5    15  20    2.94   554.7    3.2      42.333
2013    6        5    15  26    2.94   554.5    3.2      42.311
2013    6        5    15  33    2.94   554.3    3.2      42.289
2013    6        5    15  40    2.94   554.1    3.2      42.267
2013    6        5    15  46    2.94   553.9    3.2      42.245
2013    6        5    15  53    2.94   553.7    3.2      42.223
2013    6        5    15  59    2.94   553.5    3.2      42.201
2013    6        5    16   6    2.94   553.3    3.2      42.179
2013    6        5    16  12    2.94   553.1    3.3      42.158
2013    6        5    16  19    2.94   552.9    3.3      42.136
2013    6        5    16  26    2.94   552.7    3.3      42.114
2013    6        5    16  32    2.94   552.5    3.3      42.093
2013    6        5    16  39    2.94   552.3    3.3      42.071
2013    6        5    16  45    2.94   552.1    3.3      42.050
2013    6        5    16  52    2.94   551.9    3.3      42.029
2013    6        5    16  59    2.94   551.7    3.3      42.007
2013    6        5    17   5    2.94   551.5    3.3      41.986
2013    6        5    17  12    2.94   551.3    3.3      41.964
2013    6        5    17  18    2.93   551.1    3.3      41.942
2013    6        5    17  25    2.93   551.0    3.3      41.920
2013    6        5    17  31    2.93   550.8    3.3      41.898
2013    6        5    17  38    2.93   550.6    3.3      41.876
2013    6        5    17  45    2.93   550.4    3.3      41.854
2013    6        5    17  51    2.93   550.2    3.3      41.831
2013    6        5    17  58    2.93   550.0    3.3      41.808
2013    6        5    18   4    2.93   549.8    3.3      41.785
2013    6        5    18  11    2.93   549.6    3.3      41.762
2013    6        5    18  18    2.93   549.4    3.3      41.739
2013    6        5    18  24    2.93   549.2    3.3      41.715
2013    6        5    18  31    2.93   549.0    3.3      41.691
2013    6        5    18  37    2.93   548.8    3.3      41.667
2013    6        5    18  44    2.93   548.7    3.3      41.643
2013    6        5    18  50    2.93   548.5    3.3      41.619
2013    6        5    18  57    2.93   548.3    3.3      41.595
2013    6        5    19   4    2.93   548.1    3.3      41.570
2013    6        5    19  10    2.93   547.9    3.3      41.546
2013    6        5    19  17    2.93   547.7    3.3      41.521
2013    6        5    19  23    2.93   547.5    3.3      41.496
2013    6        5    19  30    2.93   547.3    3.3      41.472
2013    6        5    19  36    2.93   547.1    3.3      41.447
2013    6        5    19  43    2.93   546.9    3.3      41.422
2013    6        5    19  50    2.93   546.7    3.3      41.397
2013    6        5    19  56    2.93   546.5    3.3      41.373
2013    6        5    20   3    2.93   546.4    3.3      41.348
2013    6        5    20   9    2.93   546.2    3.3      41.323
2013    6        5    20  16    2.93   546.0    3.3      41.299
2013    6        5    20  22    2.93   545.8    3.3      41.274
2013    6        5    20  29    2.93   545.6    3.3      41.249
2013    6        5    20  36    2.93   545.4    3.3      41.225
2013    6        5    20  42    2.93   545.2    3.3      41.200
2013    6        5    20  49    2.93   545.0    3.3      41.176
2013    6        5    20  55    2.93   544.8    3.3      41.151
2013    6        5    21   2    2.93   544.6    3.3      41.127
2013    6        5    21   9    2.92   544.4    3.3      41.103
2013    6        5    21  15    2.92   544.2    3.3      41.079
2013    6        5    21  22    2.92   544.0    3.3      41.054
2013    6        5    21  28    2.92   543.8    3.3      41.030
2013    6        5    21  35    2.92   543.6    3.3      41.006
2013    6        5    21  41    2.92   543.4    3.3      40.982
2013    6        5    21  48    2.92   543.2    3.3      40.958
2013    6        5    21  55    2.92   543.0    3.3      40.934
2013    6        5    22   1    2.92   542.8    3.3      40.910
2013    6        5    22   8    2.92   542.6    3.3      40.887
2013    6        5    22  14    2.92   542.4    3.3      40.863
2013    6        5    22  21    2.92   542.2    3.3      40.839
2013    6        5    22  27    2.92   542.0    3.3      40.815
2013    6        5    22  34    2.92   541.8    3.4      40.791
2013    6        5    22  41    2.92   541.6    3.4      40.768
2013    6        5    22  47    2.92   541.5    3.4      40.744
2013    6        5    22  54    2.92   541.3    3.4      40.720
2013    6        5    23   0    2.92   541.1    3.4      40.697
2013    6        5    23   7    2.92   540.9    3.4      40.673
2013    6        5    23  13    2.92   540.7    3.4      40.649
2013    6        5    23  20    2.92   540.5    3.4      40.626
2013    6        5    23  27    2.92   540.3    3.4      40.602
2013    6        5    23  33    2.92   540.1    3.4      40.578
2013    6        5    23  40    2.92   539.9    3.4      40.555
2013    6        5    23  46    2.92   539.7    3.4      40.531
2013    6        5    23  53    2.92   539.5    3.4      40.507
2013    6        6     0   0    2.92   539.3    3.4      40.483
2013    6        6     0   6    2.92   539.1    3.4      40.460
2013    6        6     0  13    2.92   538.9    3.4      40.436
2013    6        6     0  19    2.92   538.7    3.4      40.413
2013    6        6     0  26    2.92   538.5    3.4      40.389
2013    6        6     0  32    2.92   538.3    3.4      40.365
2013    6        6     0  39    2.92   538.1    3.4      40.341
2013    6        6     0  46    2.92   537.9    3.4      40.318
2013    6        6     0  52    2.92   537.7    3.4      40.294
2013    6        6     0  59    2.92   537.5    3.4      40.270
2013    6        6     1   5    2.92   537.3    3.4      40.246
2013    6        6     1  12    2.92   537.1    3.4      40.222
2013    6        6     1  19    2.92   536.9    3.4      40.198
2013    6        6     1  25    2.92   536.7    3.4      40.174
2013    6        6     1  32    2.92   536.5    3.4      40.150
2013    6        6     1  38    2.92   536.3    3.4      40.126
2013    6        6     1  45    2.92   536.1    3.4      40.101
2013    6        6     1  51    2.92   535.9    3.4      40.077
2013    6        6     1  58    2.92   535.8    3.4      40.052
2013    6        6     2   5    2.92   535.6    3.4      40.028
2013    6        6     2  11    2.92   535.4    3.4      40.003
2013    6        6     2  18    2.92   535.2    3.4      39.978
2013    6        6     2  24    2.92   535.0    3.4      39.954
2013    6        6     2  31    2.92   534.8    3.4      39.929
2013    6        6     2  38    2.92   534.6    3.4      39.904
2013    6        6     2  44    2.91   534.4    3.4      39.879
2013    6        6     2  51    2.91   534.2    3.4      39.855
2013    6        6     2  57    2.91   534.0    3.4      39.830
2013    6        6     3   4    2.91   533.8    3.4      39.805
2013    6        6     3  10    2.91   533.6    3.4      39.780
2013    6        6     3  17    2.91   533.4    3.4      39.756
2013    6        6     3  24    2.91   533.2    3.4      39.731
2013    6        6     3  30    2.91   533.0    3.4      39.707
2013    6        6     3  37    2.91   532.8    3.4      39.682
2013    6        6     3  43    2.91   532.6    3.4      39.658
2013    6        6     3  50    2.91   532.4    3.4      39.634
2013    6        6     3  56    2.91   532.2    3.4      39.610
2013    6        6     4   3    2.91   532.0    3.5      39.586
2013    6        6     4  10    2.91   531.8    3.5      39.563
2013    6        6     4  16    2.91   531.7    3.5      39.539
2013    6        6     4  23    2.91   531.5    3.5      39.516
2013    6        6     4  29    2.91   531.3    3.5      39.493
2013    6        6     4  36    2.91   531.1    3.5      39.469
2013    6        6     4  42    2.91   530.9    3.5      39.447
2013    6        6     4  49    2.91   530.7    3.5      39.424
2013    6        6     4  56    2.91   530.5    3.5      39.401
2013    6        6     5   2    2.91   530.3    3.5      39.378
2013    6        6     5   9    2.91   530.1    3.5      39.356
2013    6        6     5  15    2.91   529.9    3.5      39.333
2013    6        6     5  22    2.91   529.7    3.5      39.311
2013    6        6     5  28    2.91   529.5    3.5      39.288
2013    6        6     5  35    2.91   529.3    3.5      39.266
2013    6        6     5  42    2.91   529.1    3.5      39.244
2013    6        6     5  48    2.91   528.9    3.5      39.222
2013    6        6     5  55    2.91   528.7    3.5      39.199
2013    6        6     6   1    2.91   528.5    3.5      39.177
2013    6        6     6   8    2.91   528.3    3.5      39.155
2013    6        6     6  14    2.91   528.1    3.5      39.133
2013    6        6     6  21    2.91   527.9    3.5      39.110
2013    6        6     6  28    2.91   527.7    3.5      39.088
2013    6        6     6  34    2.91   527.5    3.5      39.066
2013    6        6     6  41    2.91   527.3    3.5      39.043
2013    6        6     6  47    2.91   527.2    3.5      39.021
2013    6        6     6  54    2.91   527.0    3.5      38.998
2013    6        6     7   1    2.91   526.8    3.5      38.976
2013    6        6     7   7    2.91   526.6    3.5      38.953
2013    6        6     7  14    2.91   526.4    3.5      38.931
2013    6        6     7  20    2.91   526.2    3.5      38.908
2013    6        6     7  27    2.91   526.0    3.5      38.885
2013    6        6     7  33    2.91   525.8    3.5      38.862
2013    6        6     7  40    2.91   525.6    3.5      38.839
2013    6        6     7  47    2.91   525.4    3.5      38.816
2013    6        6     7  53    2.91   525.2    3.5      38.793
2013    6        6     8   0    2.91   525.0    3.5      38.770
2013    6        6     8   6    2.91   524.8    3.5      38.747
2013    6        6     8  13    2.91   524.6    3.5      38.724
2013    6        6     8  20    2.91   524.4    3.5      38.701
2013    6        6     8  26    2.91   524.2    3.5      38.678
2013    6        6     8  33    2.91   524.0    3.5      38.654
2013    6        6     8  39    2.91   523.8    3.5      38.631
2013    6        6     8  46    2.91   523.6    3.5      38.607
2013    6        6     8  52    2.91   523.4    3.5      38.584
2013    6        6     8  59    2.91   523.2    3.5      38.561
2013    6        6     9   6    2.91   523.0    3.5      38.537
2013    6        6     9  12    2.91   522.8    3.5      38.513
2013    6        6     9  19    2.91   522.6    3.6      38.490
2013    6        6     9  25    2.91   522.4    3.6      38.466
2013    6        6     9  32    2.91   522.2    3.6      38.442
2013    6        6     9  39    2.91   522.0    3.6      38.419
2013    6        6     9  45    2.91   521.9    3.6      38.395
2013    6        6     9  52    2.91   521.7    3.6      38.371
2013    6        6     9  58    2.91   521.5    3.6      38.347
2013    6        6    10   5    2.91   521.3    3.6      38.324
2013    6        6    10  11    2.91   521.1    3.6      38.300
2013    6        6    10  18    2.91   520.9    3.6      38.276
2013    6        6    10  25    2.91   520.7    3.6      38.252
2013    6        6    10  31    2.91   520.5    3.6      38.228
2013    6        6    10  38    2.91   520.3    3.6      38.204
2013    6        6    10  44    2.91   520.1    3.6      38.180
2013    6        6    10  51    2.91   519.9    3.6      38.157
2013    6        6    10  57    2.91   519.7    3.6      38.133
2013    6        6    11   4    2.91   519.5    3.6      38.109
2013    6        6    11  11    2.91   519.3    3.6      38.086
2013    6        6    11  17    2.91   519.1    3.6      38.062
2013    6        6    11  24    2.91   518.9    3.6      38.038
2013    6        6    11  30    2.91   518.7    3.6      38.015
2013    6        6    11  37    2.91   518.5    3.6      37.992
2013    6        6    11  43    2.91   518.3    3.6      37.968
2013    6        6    11  50    2.91   518.1    3.6      37.945
2013    6        6    11  57    2.91   517.9    3.6      37.922
2013    6        6    12   3    2.91   517.7    3.6      37.899
2013    6        6    12  10    2.91   517.5    3.6      37.876
2013    6        6    12  16    2.91   517.3    3.6      37.853
2013    6        6    12  23    2.91   517.1    3.6      37.831
2013    6        6    12  29    2.91   516.9    3.6      37.808
2013    6        6    12  36    2.91   516.7    3.6      37.786
2013    6        6    12  43    2.91   516.5    3.6      37.764
2013    6        6    12  49    2.91   516.3    3.6      37.742
2013    6        6    12  56    2.91   516.1    3.6      37.720
2013    6        6    13   2    2.91   515.9    3.6      37.698
2013    6        6    13   9    2.91   515.8    3.6      37.676
2013    6        6    13  15    2.91   515.6    3.6      37.654
2013    6        6    13  22    2.91   515.4    3.6      37.633
2013    6        6    13  29    2.91   515.2    3.6      37.611
2013    6        6    13  35    2.91   515.0    3.6      37.590
2013    6        6    13  42    2.91   514.8    3.6      37.569
2013    6        6    13  48    2.91   514.6    3.6      37.548
2013    6        6    13  55    2.91   514.4    3.6      37.527
2013    6        6    14   2    2.91   514.2    3.6      37.506
2013    6        6    14   8    2.91   514.0    3.6      37.485
2013    6        6    14  15    2.91   513.8    3.7      37.464
2013    6        6    14  21    2.91   513.6    3.7      37.443
2013    6        6    14  28    2.91   513.4    3.7      37.423
2013    6        6    14  34    2.91   513.2    3.7      37.402
2013    6        6    14  41    2.91   513.0    3.7      37.381
2013    6        6    14  48    2.91   512.8    3.7      37.361
2013    6        6    14  54    2.91   512.6    3.7      37.340
2013    6        6    15   1    2.91   512.5    3.7      37.320
2013    6        6    15   7    2.91   512.3    3.7      37.299
2013    6        6    15  14    2.91   512.1    3.7      37.278
2013    6        6    15  21    2.91   511.9    3.7      37.258
2013    6        6    15  27    2.91   511.7    3.7      37.237
2013    6        6    15  34    2.91   511.5    3.7      37.217
2013    6        6    15  40    2.91   511.3    3.7      37.196
2013    6        6    15  47    2.91   511.1    3.7      37.175
2013    6        6    15  53    2.91   510.9    3.7      37.155
2013    6        6    16   0    2.91   510.7    3.7      37.134
2013    6        6    16   7    2.91   510.5    3.7      37.114
2013    6        6    16  13    2.91   510.3    3.7      37.093
2013    6        6    16  20    2.91   510.1    3.7      37.072
2013    6        6    16  26    2.91   509.9    3.7      37.052
2013    6        6    16  33    2.91   509.7    3.7      37.031
2013    6        6    16  40    2.91   509.5    3.7      37.011
2013    6        6    16  46    2.91   509.4    3.7      36.990
2013    6        6    16  53    2.91   509.2    3.7      36.969
2013    6        6    16  59    2.91   509.0    3.7      36.949
2013    6        6    17   6    2.91   508.8    3.7      36.928
2013    6        6    17  12    2.91   508.6    3.7      36.908
2013    6        6    17  19    2.91   508.4    3.7      36.887
2013    6        6    17  26    2.91   508.2    3.7      36.866
2013    6        6    17  32    2.91   508.0    3.7      36.846
2013    6        6    17  39    2.91   507.8    3.7      36.825
2013    6        6    17  45    2.91   507.6    3.7      36.805
2013    6        6    17  52    2.91   507.4    3.7      36.784
2013    6        6    17  58    2.91   507.2    3.7      36.764
2013    6        6    18   5    2.91   507.0    3.7      36.743
2013    6        6    18  12    2.91   506.8    3.7      36.722
2013    6        6    18  18    2.91   506.6    3.7      36.702
2013    6        6    18  25    2.91   506.5    3.7      36.681
2013    6        6    18  31    2.91   506.3    3.8      36.661
2013    6        6    18  38    2.91   506.1    3.8      36.640
2013    6        6    18  44    2.91   505.9    3.8      36.620
2013    6        6    18  51    2.91   505.7    3.8      36.599
2013    6        6    18  58    2.91   505.5    3.8      36.579
2013    6        6    19   4    2.91   505.3    3.8      36.558
2013    6        6    19  11    2.91   505.1    3.8      36.538
2013    6        6    19  17    2.91   504.9    3.8      36.517
2013    6        6    19  24    2.91   504.7    3.8      36.497
2013    6        6    19  30    2.91   504.5    3.8      36.476
2013    6        6    19  37    2.91   504.3    3.8      36.456
2013    6        6    19  44    2.91   504.1    3.8      36.436
2013    6        6    19  50    2.91   504.0    3.8      36.416
2013    6        6    19  57    2.91   503.8    3.8      36.395
2013    6        6    20   3    2.91   503.6    3.8      36.375
2013    6        6    20  10    2.91   503.4    3.8      36.355
2013    6        6    20  16    2.91   503.2    3.8      36.335
2013    6        6    20  23    2.91   503.0    3.8      36.315
2013    6        6    20  30    2.91   502.8    3.8      36.295
2013    6        6    20  36    2.91   502.6    3.8      36.275
2013    6        6    20  43    2.92   502.4    3.8      36.256
2013    6        6    20  49    2.92   502.2    3.8      36.236
2013    6        6    20  56    2.92   502.0    3.8      36.217
2013    6        6    21   3    2.92   501.8    3.8      36.197
2013    6        6    21   9    2.92   501.7    3.8      36.178
2013    6        6    21  16    2.92   501.5    3.8      36.158
2013    6        6    21  22    2.92   501.3    3.8      36.139
2013    6        6    21  29    2.92   501.1    3.8      36.120
2013    6        6    21  35    2.92   500.9    3.8      36.101
2013    6        6    21  42    2.92   500.7    3.8      36.082
2013    6        6    21  49    2.92   500.5    3.8      36.063
2013    6        6    21  55    2.92   500.3    3.8      36.045
2013    6        6    22   2    2.92   500.1    3.8      36.026
2013    6        6    22   8    2.92   500.0    3.8      36.008
2013    6        6    22  15    2.92   499.8    3.8      35.989
2013    6        6    22  22    2.92   499.6    3.8      35.971
2013    6        6    22  28    2.92   499.4    3.8      35.953
2013    6        6    22  35    2.92   499.2    3.8      35.935
2013    6        6    22  41    2.92   499.0    3.9      35.917
2013    6        6    22  48    2.92   498.8    3.9      35.899
2013    6        6    22  54    2.92   498.6    3.9      35.881
2013    6        6    23   1    2.92   498.5    3.9      35.863
2013    6        6    23   8    2.92   498.3    3.9      35.845
2013    6        6    23  14    2.92   498.1    3.9      35.827
2013    6        6    23  21    2.92   497.9    3.9      35.810
2013    6        6    23  27    2.92   497.7    3.9      35.792
2013    6        6    23  34    2.92   497.5    3.9      35.775
2013    6        6    23  41    2.92   497.3    3.9      35.758
2013    6        6    23  47    2.92   497.1    3.9      35.740
2013    6        6    23  54    2.92   497.0    3.9      35.723
2013    6        7     0   0    2.92   496.8    3.9      35.706
2013    6        7     0   7    2.92   496.6    3.9      35.689
2013    6        7     0  13    2.93   496.4    3.9      35.672
2013    6        7     0  20    2.93   496.2    3.9      35.655
2013    6        7     0  27    2.93   496.0    3.9      35.638
2013    6        7     0  33    2.93   495.8    3.9      35.621
2013    6        7     0  40    2.93   495.7    3.9      35.605
2013    6        7     0  46    2.93   495.5    3.9      35.588
2013    6        7     0  53    2.93   495.3    3.9      35.571
2013    6        7     0  59    2.93   495.1    3.9      35.555
2013    6        7     1   6    2.93   494.9    3.9      35.538
2013    6        7     1  13    2.93   494.7    3.9      35.522
2013    6        7     1  19    2.93   494.6    3.9      35.505
2013    6        7     1  26    2.93   494.4    3.9      35.489
2013    6        7     1  32    2.93   494.2    3.9      35.473
2013    6        7     1  39    2.93   494.0    3.9      35.456
2013    6        7     1  45    2.93   493.8    3.9      35.440
2013    6        7     1  52    2.93   493.6    3.9      35.424
2013    6        7     1  59    2.93   493.5    3.9      35.408
2013    6        7     2   5    2.93   493.3    3.9      35.392
2013    6        7     2  12    2.93   493.1    4.0      35.376
2013    6        7     2  18    2.93   492.9    4.0      35.360
2013    6        7     2  25    2.93   492.7    4.0      35.344
2013    6        7     2  31    2.93   492.6    4.0      35.328
2013    6        7     2  38    2.93   492.4    4.0      35.313
2013    6        7     2  45    2.93   492.2    4.0      35.297
2013    6        7     2  51    2.93   492.0    4.0      35.281
2013    6        7     2  58    2.94   491.8    4.0      35.266
2013    6        7     3   4    2.94   491.7    4.0      35.250
2013    6        7     3  11    2.94   491.5    4.0      35.234
2013    6        7     3  18    2.94   491.3    4.0      35.219
2013    6        7     3  24    2.94   491.1    4.0      35.203
2013    6        7     3  31    2.94   490.9    4.0      35.188
2013    6        7     3  37    2.94   490.8    4.0      35.172
2013    6        7     3  44    2.94   490.6    4.0      35.157
2013    6        7     3  50    2.94   490.4    4.0      35.141
2013    6        7     3  57    2.94   490.2    4.0      35.126
2013    6        7     4   4    2.94   490.0    4.0      35.111
2013    6        7     4  10    2.94   489.9    4.0      35.096
2013    6        7     4  17    2.94   489.7    4.0      35.080
2013    6        7     4  23    2.94   489.5    4.0      35.065
2013    6        7     4  30    2.94   489.3    4.0      35.050
2013    6        7     4  36    2.94   489.1    4.0      35.035
2013    6        7     4  43    2.94   489.0    4.0      35.020
2013    6        7     4  50    2.94   488.8    4.0      35.005
2013    6        7     4  56    2.94   488.6    4.0      34.990
2013    6        7     5   3    2.94   488.4    4.0      34.975
2013    6        7     5   9    2.95   488.3    4.0      34.960
2013    6        7     5  16    2.95   488.1    4.0      34.946
2013    6        7     5  23    2.95   487.9    4.0      34.931
2013    6        7     5  29    2.95   487.7    4.0      34.916
2013    6        7     5  36    2.95   487.6    4.0      34.902
2013    6        7     5  42    2.95   487.4    4.1      34.887
2013    6        7     5  49    2.95   487.2    4.1      34.873
2013    6        7     5  55    2.95   487.0    4.1      34.859
2013    6        7     6   2    2.95   486.9    4.1      34.844
2013    6        7     6   9    2.95   486.7    4.1      34.830
2013    6        7     6  15    2.95   486.5    4.1      34.816
2013    6        7     6  22    2.95   486.3    4.1      34.802
2013    6        7     6  28    2.95   486.2    4.1      34.788
2013    6        7     6  35    2.95   486.0    4.1      34.774
2013    6        7     6  42    2.95   485.8    4.1      34.760
2013    6        7     6  48    2.95   485.6    4.1      34.747
2013    6        7     6  55    2.95   485.5    4.1      34.733
2013    6        7     7   1    2.95   485.3    4.1      34.719
2013    6        7     7   8    2.96   485.1    4.1      34.706
2013    6        7     7  14    2.96   484.9    4.1      34.693
2013    6        7     7  21    2.96   484.8    4.1      34.679
2013    6        7     7  28    2.96   484.6    4.1      34.666
2013    6        7     7  34    2.96   484.4    4.1      34.653
2013    6        7     7  41    2.96   484.3    4.1      34.640
2013    6        7     7  47    2.96   484.1    4.1      34.627
2013    6        7     7  54    2.96   483.9    4.1      34.614
2013    6        7     8   0    2.96   483.8    4.1      34.602
2013    6        7     8   7    2.96   483.6    4.1      34.589
2013    6        7     8  14    2.96   483.4    4.1      34.576
2013    6        7     8  20    2.96   483.2    4.1      34.564
2013    6        7     8  27    2.96   483.1    4.1      34.552
2013    6        7     8  33    2.96   482.9    4.1      34.539
2013    6        7     8  40    2.96   482.7    4.1      34.527
2013    6        7     8  46    2.96   482.6    4.1      34.515
2013    6        7     8  53    2.97   482.4    4.2      34.503
2013    6        7     9   0    2.97   482.2    4.2      34.491
2013    6        7     9   6    2.97   482.1    4.2      34.480
2013    6        7     9  13    2.97   481.9    4.2      34.468
2013    6        7     9  19    2.97   481.7    4.2      34.456
2013    6        7     9  26    2.97   481.6    4.2      34.445
2013    6        7     9  32    2.97   481.4    4.2      34.433
2013    6        7     9  39    2.97   481.2    4.2      34.422
2013    6        7     9  46    2.97   481.1    4.2      34.411
2013    6        7     9  52    2.97   480.9    4.2      34.399
2013    6        7     9  59    2.97   480.7    4.2      34.388
2013    6        7    10   5    2.97   480.6    4.2      34.377
2013    6        7    10  12    2.97   480.4    4.2      34.366
2013    6        7    10  18    2.97   480.3    4.2      34.355
2013    6        7    10  25    2.97   480.1    4.2      34.344
2013    6        7    10  32    2.98   479.9    4.2      34.333
2013    6        7    10  38    2.98   479.8    4.2      34.323
2013    6        7    10  45    2.98   479.6    4.2      34.312
2013    6        7    10  51    2.98   479.4    4.2      34.301
2013    6        7    10  58    2.98   479.3    4.2      34.291
2013    6        7    11   5    2.98   479.1    4.2      34.280
2013    6        7    11  11    2.98   479.0    4.2      34.270
2013    6        7    11  18    2.98   478.8    4.2      34.259
2013    6        7    11  24    2.98   478.6    4.2      34.249
2013    6        7    11  31    2.98   478.5    4.2      34.238
2013    6        7    11  37    2.98   478.3    4.2      34.228
2013    6        7    11  44    2.98   478.1    4.2      34.218
2013    6        7    11  51    2.98   478.0    4.3      34.207
2013    6        7    11  57    2.98   477.8    4.3      34.197
2013    6        7    12   4    2.98   477.7    4.3      34.187
2013    6        7    12  10    2.99   477.5    4.3      34.177
2013    6        7    12  17    2.99   477.3    4.3      34.166
2013    6        7    12  24    2.99   477.2    4.3      34.156
2013    6        7    12  30    2.99   477.0    4.3      34.146
2013    6        7    12  37    2.99   476.9    4.3      34.136
2013    6        7    12  43    2.99   476.7    4.3      34.126
2013    6        7    12  50    2.99   476.5    4.3      34.116
2013    6        7    12  56    2.99   476.4    4.3      34.105
2013    6        7    13   3    2.99   476.2    4.3      34.095
2013    6        7    13  10    2.99   476.1    4.3      34.085
2013    6        7    13  16    2.99   475.9    4.3      34.075
2013    6        7    13  23    2.99   475.8    4.3      34.065
2013    6        7    13  29    2.99   475.6    4.3      34.055
2013    6        7    13  36    2.99   475.4    4.3      34.045
2013    6        7    13  43    3.00   475.3    4.3      34.035
2013    6        7    13  49    3.00   475.1    4.3      34.024
2013    6        7    13  56    3.00   475.0    4.3      34.014
2013    6        7    14   2    3.00   474.8    4.3      34.004
2013    6        7    14   9    3.00   474.7    4.3      33.994
2013    6        7    14  15    3.00   474.5    4.3      33.984
2013    6        7    14  22    3.00   474.3    4.3      33.974
2013    6        7    14  29    3.00   474.2    4.3      33.964
2013    6        7    14  35    3.00   474.0    4.3      33.955
2013    6        7    14  42    3.00   473.9    4.3      33.945
2013    6        7    14  48    3.00   473.7    4.3      33.935
2013    6        7    14  55    3.00   473.6    4.4      33.925
2013    6        7    15   1    3.00   473.4    4.4      33.916
2013    6        7    15   8    3.00   473.2    4.4      33.906
2013    6        7    15  15    3.00   473.1    4.4      33.896
2013    6        7    15  21    3.01   472.9    4.4      33.887
2013    6        7    15  28    3.01   472.8    4.4      33.878
2013    6        7    15  34    3.01   472.6    4.4      33.868
2013    6        7    15  41    3.01   472.5    4.4      33.859
2013    6        7    15  47    3.01   472.3    4.4      33.850
2013    6        7    15  54    3.01   472.2    4.4      33.841
2013    6        7    16   1    3.01   472.0    4.4      33.832
2013    6        7    16   7    3.01   471.9    4.4      33.823
2013    6        7    16  14    3.01   471.7    4.4      33.815
2013    6        7    16  20    3.01   471.6    4.4      33.806
2013    6        7    16  27    3.01   471.4    4.4      33.798
2013    6        7    16  34    3.01   471.3    4.4      33.789
2013    6        7    16  40    3.01   471.1    4.4      33.781
2013    6        7    16  47    3.02   471.0    4.4      33.773
2013    6        7    16  53    3.02   470.8    4.4      33.765
2013    6        7    17   0    3.02   470.7    4.4      33.757
2013    6        7    17   6    3.02   470.5    4.4      33.749
2013    6        7    17  13    3.02   470.4    4.4      33.741
2013    6        7    17  20    3.02   470.2    4.4      33.733
2013    6        7    17  26    3.02   470.1    4.4      33.725
2013    6        7    17  33    3.02   469.9    4.4      33.718
2013    6        7    17  39    3.02   469.8    4.4      33.710
2013    6        7    17  46    3.02   469.6    4.5      33.703
2013    6        7    17  52    3.02   469.5    4.5      33.695
2013    6        7    17  59    3.02   469.3    4.5      33.688
2013    6        7    18   6    3.02   469.2    4.5      33.681
2013    6        7    18  12    3.03   469.0    4.5      33.674
2013    6        7    18  19    3.03   468.9    4.5      33.666
2013    6        7    18  25    3.03   468.7    4.5      33.659
2013    6        7    18  32    3.03   468.6    4.5      33.652
2013    6        7    18  38    3.03   468.4    4.5      33.645
2013    6        7    18  45    3.03   468.3    4.5      33.638
2013    6        7    18  52    3.03   468.1    4.5      33.631
2013    6        7    18  58    3.03   468.0    4.5      33.624
2013    6        7    19   5    3.03   467.8    4.5      33.617
2013    6        7    19  11    3.03   467.7    4.5      33.611
2013    6        7    19  18    3.03   467.5    4.5      33.604
2013    6        7    19  25    3.03   467.4    4.5      33.597
2013    6        7    19  31    3.03   467.3    4.5      33.590
2013    6        7    19  38    3.04   467.1    4.5      33.583
2013    6        7    19  44    3.04   467.0    4.5      33.576
2013    6        7    19  51    3.04   466.8    4.5      33.569
2013    6        7    19  57    3.04   466.7    4.5      33.562
2013    6        7    20   4    3.04   466.5    4.5      33.555
2013    6        7    20  11    3.04   466.4    4.5      33.548
2013    6        7    20  17    3.04   466.2    4.5      33.541
2013    6        7    20  24    3.04   466.1    4.5      33.534
2013    6        7    20  30    3.04   466.0    4.5      33.527
2013    6        7    20  37    3.04   465.8    4.6      33.520
2013    6        7    20  44    3.04   465.7    4.6      33.513
2013    6        7    20  50    3.04   465.5    4.6      33.506
2013    6        7    20  57    3.04   465.4    4.6      33.499
2013    6        7    21   3    3.05   465.2    4.6      33.492
2013    6        7    21  10    3.05   465.1    4.6      33.484
2013    6        7    21  16    3.05   464.9    4.6      33.477
2013    6        7    21  23    3.05   464.8    4.6      33.470
2013    6        7    21  30    3.05   464.7    4.6      33.463
2013    6        7    21  36    3.05   464.5    4.6      33.455
2013    6        7    21  43    3.05   464.4    4.6      33.448
2013    6        7    21  49    3.05   464.2    4.6      33.441
2013    6        7    21  56    3.05   464.1    4.6      33.433
2013    6        7    22   2    3.05   463.9    4.6      33.426
2013    6        7    22   9    3.05   463.8    4.6      33.418
2013    6        7    22  16    3.05   463.7    4.6      33.411
2013    6        7    22  22    3.05   463.5    4.6      33.404
2013    6        7    22  29    3.06   463.4    4.6      33.396
2013    6        7    22  35    3.06   463.2    4.6      33.389
2013    6        7    22  42    3.06   463.1    4.6      33.382
2013    6        7    22  49    3.06   463.0    4.6      33.374
2013    6        7    22  55    3.06   462.8    4.6      33.367
2013    6        7    23   2    3.06   462.7    4.6      33.360
2013    6        7    23   8    3.06   462.5    4.6      33.353
2013    6        7    23  15    3.06   462.4    4.6      33.345
2013    6        7    23  21    3.06   462.2    4.6      33.338
2013    6        7    23  28    3.06   462.1    4.6      33.331
2013    6        7    23  35    3.06   462.0    4.7      33.324
2013    6        7    23  41    3.06   461.8    4.7      33.317
2013    6        7    23  48    3.06   461.7    4.7      33.310
2013    6        7    23  54    3.07   461.5    4.7      33.303
2013    6        8     0   1    3.07   461.4    4.7      33.296
2013    6        8     0   7    3.07   461.3    4.7      33.287
2013    6        8     0  14    3.07   461.1    4.7      33.279
2013    6        8     0  21    3.07   461.0    4.7      33.271
2013    6        8     0  27    3.07   460.9    4.7      33.262
2013    6        8     0  34    3.07   460.7    4.7      33.254
2013    6        8     0  40    3.07   460.6    4.7      33.246
2013    6        8     0  47    3.07   460.5    4.7      33.238
2013    6        8     0  53    3.07   460.3    4.7      33.230
2013    6        8     1   0    3.07   460.2    4.7      33.222
2013    6        8     1   7    3.07   460.1    4.7      33.214
2013    6        8     1  13    3.07   459.9    4.7      33.206
2013    6        8     1  20    3.07   459.8    4.7      33.198
2013    6        8     1  26    3.07   459.7    4.7      33.190
2013    6        8     1  33    3.07   459.5    4.7      33.182
2013    6        8     1  39    3.07   459.4    4.7      33.174
2013    6        8     1  46    3.07   459.3    4.7      33.167
2013    6        8     1  53    3.08   459.1    4.7      33.159
2013    6        8     1  59    3.08   459.0    4.7      33.151
2013    6        8     2   6    3.08   458.9    4.7      33.144
2013    6        8     2  12    3.08   458.7    4.7      33.136
2013    6        8     2  19    3.08   458.6    4.7      33.128
2013    6        8     2  25    3.08   458.5    4.7      33.121
2013    6        8     2  32    3.08   458.3    4.7      33.113
2013    6        8     2  39    3.08   458.2    4.7      33.106
2013    6        8     2  45    3.08   458.1    4.7      33.099
2013    6        8     2  52    3.08   458.0    4.7      33.091
2013    6        8     2  58    3.08   457.8    4.8      33.084
2013    6        8     3   5    3.08   457.7    4.8      33.077
2013    6        8     3  12    3.08   457.6    4.8      33.069
2013    6        8     3  18    3.08   457.4    4.8      33.062
2013    6        8     3  25    3.08   457.3    4.8      33.055
2013    6        8     3  31    3.08   457.2    4.8      33.048
2013    6        8     3  38    3.08   457.0    4.8      33.041
2013    6        8     3  44    3.08   456.9    4.8      33.034
2013    6        8     3  51    3.09   456.8    4.8      33.027
2013    6        8     3  58    3.09   456.7    4.8      33.020
2013    6        8     4   4    3.09   456.5    4.8      33.013
2013    6        8     4  11    3.09   456.4    4.8      33.006
2013    6        8     4  17    3.09   456.3    4.8      33.000
2013    6        8     4  24    3.09   456.1    4.8      32.993
2013    6        8     4  31    3.09   456.0    4.8      32.986
2013    6        8     4  37    3.09   455.9    4.8      32.979
2013    6        8     4  44    3.09   455.8    4.8      32.973
2013    6        8     4  50    3.09   455.6    4.8      32.966
2013    6        8     4  57    3.09   455.5    4.8      32.960
2013    6        8     5   3    3.09   455.4    4.8      32.953
2013    6        8     5  10    3.09   455.2    4.8      32.947
2013    6        8     5  17    3.09   455.1    4.8      32.940
2013    6        8     5  23    3.09   455.0    4.8      32.934
2013    6        8     5  30    3.09   454.9    4.8      32.927
2013    6        8     5  36    3.10   454.7    4.8      32.921
2013    6        8     5  43    3.10   454.6    4.8      32.914
2013    6        8     5  50    3.10   454.5    4.8      32.908
2013    6        8     5  56    3.10   454.4    4.8      32.901
2013    6        8     6   3    3.10   454.2    4.8      32.895
2013    6        8     6   9    3.10   454.1    4.9      32.888
2013    6        8     6  16    3.10   454.0    4.9      32.882
2013    6        8     6  22    3.10   453.9    4.9      32.875
2013    6        8     6  29    3.10   453.7    4.9      32.869
2013    6        8     6  36    3.10   453.6    4.9      32.862
2013    6        8     6  42    3.10   453.5    4.9      32.856
2013    6        8     6  49    3.10   453.4    4.9      32.849
2013    6        8     6  55    3.10   453.2    4.9      32.843
2013    6        8     7   2    3.10   453.1    4.9      32.836
2013    6        8     7   8    3.10   453.0    4.9      32.829
2013    6        8     7  15    3.11   452.9    4.9      32.822
2013    6        8     7  22    3.11   452.7    4.9      32.816
2013    6        8     7  28    3.11   452.6    4.9      32.809
2013    6        8     7  35    3.11   452.5    4.9      32.802
2013    6        8     7  41    3.11   452.4    4.9      32.795
2013    6        8     7  48    3.11   452.2    4.9      32.788
2013    6        8     7  54    3.11   452.1    4.9      32.781
2013    6        8     8   1    3.11   452.0    4.9      32.774
2013    6        8     8   8    3.11   451.9    4.9      32.767
2013    6        8     8  14    3.11   451.7    4.9      32.760
2013    6        8     8  21    3.11   451.6    4.9      32.753
2013    6        8     8  27    3.11   451.5    4.9      32.746
2013    6        8     8  34    3.11   451.4    4.9      32.739
2013    6        8     8  40    3.11   451.2    4.9      32.732
2013    6        8     8  47    3.11   451.1    4.9      32.725
2013    6        8     8  53    3.11   451.0    4.9      32.718
2013    6        8     9   0    3.12   450.9    4.9      32.710
2013    6        8     9   7    3.12   450.7    4.9      32.703
2013    6        8     9  13    3.12   450.6    4.9      32.696
2013    6        8     9  20    3.12   450.5    4.9      32.689
2013    6        8     9  26    3.12   450.4    4.9      32.682
2013    6        8     9  33    3.12   450.2    5.0      32.674
2013    6        8     9  39    3.12   450.1    5.0      32.667
2013    6        8     9  46    3.12   450.0    5.0      32.660
2013    6        8     9  53    3.12   449.9    5.0      32.653
2013    6        8     9  59    3.12   449.7    5.0      32.646
2013    6        8    10   6    3.12   449.6    5.0      32.639
2013    6        8    10  12    3.12   449.5    5.0      32.632
2013    6        8    10  19    3.12   449.4    5.0      32.625
2013    6        8    10  25    3.12   449.3    5.0      32.618
2013    6        8    10  32    3.12   449.1    5.0      32.612
2013    6        8    10  39    3.13   449.0    5.0      32.605
2013    6        8    10  45    3.13   448.9    5.0      32.598
2013    6        8    10  52    3.13   448.8    5.0      32.592
2013    6        8    10  58    3.13   448.6    5.0      32.586
2013    6        8    11   5    3.13   448.5    5.0      32.579
2013    6        8    11  11    3.13   448.4    5.0      32.573
2013    6        8    11  18    3.13   448.3    5.0      32.567
2013    6        8    11  25    3.13   448.2    5.0      32.561
2013    6        8    11  31    3.13   448.0    5.0      32.555
2013    6        8    11  38    3.13   447.9    5.0      32.549
2013    6        8    11  44    3.13   447.8    5.0      32.544
2013    6        8    11  51    3.13   447.7    5.0      32.538
2013    6        8    11  57    3.13   447.6    5.0      32.533
2013    6        8    12   4    3.14   447.4    5.0      32.528
2013    6        8    12  11    3.14   447.3    5.0      32.523
2013    6        8    12  17    3.14   447.2    5.0      32.518
2013    6        8    12  24    3.14   447.1    5.0      32.513
2013    6        8    12  30    3.14   447.0    5.0      32.508
2013    6        8    12  37    3.14   446.8    5.0      32.503
2013    6        8    12  43    3.14   446.7    5.0      32.499
2013    6        8    12  50    3.14   446.6    5.1      32.494
2013    6        8    12  57    3.14   446.5    5.1      32.490
2013    6        8    13   3    3.14   446.4    5.1      32.486
2013    6        8    13  10    3.14   446.3    5.1      32.482
2013    6        8    13  16    3.14   446.1    5.1      32.478
2013    6        8    13  23    3.15   446.0    5.1      32.474
2013    6        8    13  29    3.15   445.9    5.1      32.470
2013    6        8    13  36    3.15   445.8    5.1      32.466
2013    6        8    13  43    3.15   445.7    5.1      32.462
2013    6        8    13  49    3.15   445.6    5.1      32.459
2013    6        8    13  56    3.15   445.5    5.1      32.455
2013    6        8    14   2    3.15   445.3    5.1      32.451
2013    6        8    14   9    3.15   445.2    5.1      32.448
2013    6        8    14  15    3.15   445.1    5.1      32.444
2013    6        8    14  22    3.15   445.0    5.1      32.441
2013    6        8    14  29    3.16   444.9    5.1      32.437
2013    6        8    14  35    3.16   444.8    5.1      32.434
2013    6        8    14  42    3.16   444.7    5.1      32.430
2013    6        8    14  48    3.16   444.5    5.1      32.427
2013    6        8    14  55    3.16   444.4    5.1      32.423
2013    6        8    15   1    3.16   444.3    5.1      32.419
2013    6        8    15   8    3.16   444.2    5.1      32.416
2013    6        8    15  15    3.16   444.1    5.1      32.412
2013    6        8    15  21    3.16   444.0    5.1      32.408
2013    6        8    15  28    3.16   443.9    5.1      32.405
2013    6        8    15  34    3.16   443.7    5.2      32.401
2013    6        8    15  41    3.17   443.6    5.2      32.397
2013    6        8    15  47    3.17   443.5    5.2      32.393
2013    6        8    15  54    3.17   443.4    5.2      32.389
2013    6        8    16   1    3.17   443.3    5.2      32.385
2013    6        8    16   7    3.17   443.2    5.2      32.381
2013    6        8    16  14    3.17   443.1    5.2      32.377
2013    6        8    16  20    3.17   443.0    5.2      32.373
2013    6        8    16  27    3.17   442.8    5.2      32.369
2013    6        8    16  33    3.17   442.7    5.2      32.364
2013    6        8    16  40    3.17   442.6    5.2      32.360
2013    6        8    16  47    3.17   442.5    5.2      32.356
2013    6        8    16  53    3.18   442.4    5.2      32.351
2013    6        8    17   0    3.18   442.3    5.2      32.347
2013    6        8    17   6    3.18   442.2    5.2      32.342
2013    6        8    17  13    3.18   442.1    5.2      32.338
2013    6        8    17  19    3.18   442.0    5.2      32.333
2013    6        8    17  26    3.18   441.8    5.2      32.328
2013    6        8    17  33    3.18   441.7    5.2      32.324
2013    6        8    17  39    3.18   441.6    5.2      32.319
2013    6        8    17  46    3.18   441.5    5.2      32.315
2013    6        8    17  52    3.18   441.4    5.2      32.310
2013    6        8    17  59    3.19   441.3    5.2      32.306
2013    6        8    18   6    3.19   441.2    5.2      32.301
2013    6        8    18  12    3.19   441.1    5.2      32.297
2013    6        8    18  19    3.19   441.0    5.2      32.292
2013    6        8    18  25    3.19   440.8    5.2      32.288
2013    6        8    18  32    3.19   440.7    5.3      32.284
2013    6        8    18  38    3.19   440.6    5.3      32.280
2013    6        8    18  45    3.19   440.5    5.3      32.276
2013    6        8    18  52    3.19   440.4    5.3      32.272
2013    6        8    18  58    3.19   440.3    5.3      32.268
2013    6        8    19   5    3.20   440.2    5.3      32.264
2013    6        8    19  11    3.20   440.1    5.3      32.260
2013    6        8    19  18    3.20   440.0    5.3      32.257
2013    6        8    19  24    3.20   439.9    5.3      32.254
2013    6        8    19  31    3.20   439.8    5.3      32.250
2013    6        8    19  38    3.20   439.6    5.3      32.247
2013    6        8    19  44    3.20   439.5    5.3      32.244
2013    6        8    19  51    3.20   439.4    5.3      32.242
2013    6        8    19  57    3.20   439.3    5.3      32.239
2013    6        8    20   4    3.21   439.2    5.3      32.237
2013    6        8    20  11    3.21   439.1    5.3      32.234
2013    6        8    20  17    3.21   439.0    5.3      32.232
2013    6        8    20  24    3.21   438.9    5.3      32.230
2013    6        8    20  30    3.21   438.8    5.3      32.229
2013    6        8    20  37    3.21   438.7    5.3      32.227
2013    6        8    20  43    3.21   438.6    5.3      32.226
2013    6        8    20  50    3.21   438.5    5.3      32.225
2013    6        8    20  57    3.21   438.4    5.3      32.223
2013    6        8    21   3    3.22   438.3    5.3      32.223
2013    6        8    21  10    3.22   438.2    5.3      32.222
2013    6        8    21  16    3.22   438.1    5.4      32.221
2013    6        8    21  23    3.22   438.0    5.4      32.221
2013    6        8    21  29    3.22   437.9    5.4      32.220
2013    6        8    21  36    3.22   437.8    5.4      32.220
2013    6        8    21  43    3.22   437.7    5.4      32.220
2013    6        8    21  49    3.22   437.6    5.4      32.220
2013    6        8    21  56    3.23   437.5    5.4      32.220
2013    6        8    22   2    3.23   437.4    5.4      32.221
2013    6        8    22   9    3.23   437.3    5.4      32.221
2013    6        8    22  15    3.23   437.2    5.4      32.221
2013    6        8    22  22    3.23   437.1    5.4      32.222
2013    6        8    22  29    3.23   437.0    5.4      32.223
2013    6        8    22  35    3.23   436.9    5.4      32.223
2013    6        8    22  42    3.23   436.8    5.4      32.224
2013    6        8    22  48    3.24   436.7    5.4      32.225
2013    6        8    22  55    3.24   436.6    5.4      32.226
2013    6        8    23   1    3.24   436.5    5.4      32.227
2013    6        8    23   8    3.24   436.4    5.4      32.228
2013    6        8    23  15    3.24   436.3    5.4      32.229
2013    6        8    23  21    3.24   436.2    5.4      32.230
2013    6        8    23  28    3.24   436.2    5.4      32.232
2013    6        8    23  34    3.25   436.1    5.4      32.233
2013    6        8    23  41    3.25   436.0    5.4      32.234
2013    6        8    23  47    3.25   435.9    5.5      32.235
2013    6        8    23  54    3.25   435.8    5.5      32.237
2013    6        9     0   0    3.25   435.7    5.5      32.238
2013    6        9     0   7    3.25   435.6    5.5      32.242
2013    6        9     0  14    3.25   435.5    5.5      32.245
2013    6        9     0  20    3.26   435.4    5.5      32.248
2013    6        9     0  27    3.26   435.3    5.5      32.251
2013    6        9     0  33    3.26   435.2    5.5      32.254
2013    6        9     0  40    3.26   435.1    5.5      32.257
2013    6        9     0  46    3.26   435.0    5.5      32.261
2013    6        9     0  53    3.26   434.9    5.5      32.264
2013    6        9     1   0    3.27   434.8    5.5      32.267
2013    6        9     1   6    3.27   434.7    5.5      32.270
2013    6        9     1  13    3.27   434.6    5.5      32.273
2013    6        9     1  19    3.27   434.5    5.5      32.277
2013    6        9     1  26    3.27   434.4    5.5      32.280
2013    6        9     1  32    3.27   434.4    5.5      32.283
2013    6        9     1  39    3.28   434.3    5.5      32.286
2013    6        9     1  46    3.28   434.2    5.5      32.290
2013    6        9     1  52    3.28   434.1    5.6      32.293
2013    6        9     1  59    3.28   434.0    5.6      32.297
2013    6        9     2   5    3.28   433.9    5.6      32.300
2013    6        9     2  12    3.28   433.8    5.6      32.304
2013    6        9     2  18    3.28   433.7    5.6      32.307
2013    6        9     2  25    3.29   433.6    5.6      32.311
2013    6        9     2  32    3.29   433.5    5.6      32.314
2013    6        9     2  38    3.29   433.4    5.6      32.318
2013    6        9     2  45    3.29   433.3    5.6      32.322
2013    6        9     2  51    3.29   433.2    5.6      32.326
2013    6        9     2  58    3.29   433.2    5.6      32.330
2013    6        9     3   4    3.30   433.1    5.6      32.334
2013    6        9     3  11    3.30   433.0    5.6      32.338
2013    6        9     3  18    3.30   432.9    5.6      32.342
2013    6        9     3  24    3.30   432.8    5.6      32.347
2013    6        9     3  31    3.30   432.7    5.6      32.351
2013    6        9     3  37    3.30   432.6    5.6      32.356
2013    6        9     3  44    3.31   432.5    5.6      32.360
2013    6        9     3  50    3.31   432.4    5.6      32.365
2013    6        9     3  57    3.31   432.3    5.7      32.370
2013    6        9     4   4    3.31   432.3    5.7      32.375
2013    6        9     4  10    3.31   432.2    5.7      32.380
2013    6        9     4  17    3.32   432.1    5.7      32.385
2013    6        9     4  23    3.32   432.0    5.7      32.390
2013    6        9     4  30    3.32   431.9    5.7      32.396
2013    6        9     4  36    3.32   431.8    5.7      32.401
2013    6        9     4  43    3.32   431.7    5.7      32.406
2013    6        9     4  50    3.32   431.7    5.7      32.412
2013    6        9     4  56    3.33   431.6    5.7      32.418
2013    6        9     5   3    3.33   431.5    5.7      32.423
2013    6        9     5   9    3.33   431.4    5.7      32.429
2013    6        9     5  16    3.33   431.3    5.7      32.435
2013    6        9     5  22    3.33   431.2    5.7      32.441
2013    6        9     5  29    3.33   431.2    5.7      32.447
2013    6        9     5  36    3.34   431.1    5.7      32.453
2013    6        9     5  42    3.34   431.0    5.7      32.459
2013    6        9     5  49    3.34   430.9    5.7      32.465
2013    6        9     5  55    3.34   430.8    5.7      32.471
2013    6        9     6   2    3.34   430.8    5.8      32.478
2013    6        9     6   8    3.35   430.7    5.8      32.484
2013    6        9     6  15    3.35   430.6    5.8      32.490
2013    6        9     6  22    3.35   430.5    5.8      32.497
2013    6        9     6  28    3.35   430.4    5.8      32.503
2013    6        9     6  35    3.35   430.4    5.8      32.510
2013    6        9     6  41    3.36   430.3    5.8      32.517
2013    6        9     6  48    3.36   430.2    5.8      32.524
2013    6        9     6  54    3.36   430.1    5.8      32.531
2013    6        9     7   1    3.36   430.1    5.8      32.538
2013    6        9     7   8    3.36   430.0    5.8      32.545
2013    6        9     7  14    3.36   429.9    5.8      32.552
2013    6        9     7  21    3.37   429.8    5.8      32.559
2013    6        9     7  27    3.37   429.8    5.8      32.566
2013    6        9     7  34    3.37   429.7    5.8      32.574
2013    6        9     7  40    3.37   429.6    5.8      32.581
2013    6        9     7  47    3.37   429.5    5.8      32.589
2013    6        9     7  53    3.38   429.5    5.8      32.596
2013    6        9     8   0    3.38   429.4    5.8      32.604
2013    6        9     8   7    3.38   429.3    5.9      32.612
2013    6        9     8  13    3.38   429.3    5.9      32.620
2013    6        9     8  20    3.38   429.2    5.9      32.628
2013    6        9     8  26    3.39   429.1    5.9      32.636
2013    6        9     8  33    3.39   429.1    5.9      32.644
2013    6        9     8  39    3.39   429.0    5.9      32.652
2013    6        9     8  46    3.39   428.9    5.9      32.660
2013    6        9     8  53    3.39   428.8    5.9      32.668
2013    6        9     8  59    3.40   428.8    5.9      32.677
2013    6        9     9   6    3.40   428.7    5.9      32.685
2013    6        9     9  12    3.40   428.6    5.9      32.694
2013    6        9     9  19    3.40   428.6    5.9      32.702
2013    6        9     9  25    3.40   428.5    5.9      32.711
2013    6        9     9  32    3.41   428.4    5.9      32.720
2013    6        9     9  39    3.41   428.4    5.9      32.729
2013    6        9     9  45    3.41   428.3    5.9      32.737
2013    6        9     9  52    3.41   428.2    5.9      32.746
2013    6        9     9  58    3.41   428.2    6.0      32.755
2013    6        9    10   5    3.41   428.1    6.0      32.764
2013    6        9    10  11    3.42   428.0    6.0      32.773
2013    6        9    10  18    3.42   428.0    6.0      32.782
2013    6        9    10  25    3.42   427.9    6.0      32.790
2013    6        9    10  31    3.42   427.8    6.0      32.799
2013    6        9    10  38    3.42   427.8    6.0      32.808
2013    6        9    10  44    3.43   427.7    6.0      32.817
2013    6        9    10  51    3.43   427.7    6.0      32.825
2013    6        9    10  57    3.43   427.6    6.0      32.834
2013    6        9    11   4    3.43   427.5    6.0      32.843
2013    6        9    11  11    3.43   427.5    6.0      32.851
2013    6        9    11  17    3.43   427.4    6.0      32.860
2013    6        9    11  24    3.44   427.3    6.0      32.868
2013    6        9    11  30    3.44   427.3    6.0      32.876
2013    6        9    11  37    3.44   427.2    6.0      32.885
2013    6        9    11  43    3.44   427.1    6.0      32.893
2013    6        9    11  50    3.44   427.1    6.0      32.901
2013    6        9    11  57    3.44   427.0    6.0      32.909
2013    6        9    12   3    3.45   426.9    6.0      32.917
2013    6        9    12  10    3.45   426.9    6.1      32.925
2013    6        9    12  16    3.45   426.8    6.1      32.933
2013    6        9    12  23    3.45   426.7    6.1      32.940
2013    6        9    12  29    3.45   426.7    6.1      32.948
2013    6        9    12  36    3.46   426.6    6.1      32.956
2013    6        9    12  43    3.46   426.6    6.1      32.963
2013    6        9    12  49    3.46   426.5    6.1      32.971
2013    6        9    12  56    3.46   426.4    6.1      32.978
2013    6        9    13   2    3.46   426.4    6.1      32.986
2013    6        9    13   9    3.47   426.3    6.1      32.993
2013    6        9    13  15    3.47   426.2    6.1      33.000
2013    6        9    13  22    3.47   426.2    6.1      33.008
2013    6        9    13  29    3.47   426.1    6.1      33.015
2013    6        9    13  35    3.47   426.1    6.1      33.023
2013    6        9    13  42    3.48   426.0    6.1      33.030
2013    6        9    13  48    3.48   425.9    6.1      33.038
2013    6        9    13  55    3.48   425.9    6.1      33.046
2013    6        9    14   1    3.48   425.8    6.1      33.054
2013    6        9    14   8    3.48   425.8    6.1      33.063
2013    6        9    14  15    3.49   425.7    6.1      33.072
2013    6        9    14  21    3.49   425.6    6.2      33.081
2013    6        9    14  28    3.49   425.6    6.2      33.090
2013    6        9    14  34    3.49   425.5    6.2      33.100
2013    6        9    14  41    3.50   425.5    6.2      33.110
2013    6        9    14  47    3.50   425.4    6.2      33.119
2013    6        9    14  54    3.50   425.4    6.2      33.129
2013    6        9    15   1    3.50   425.3    6.2      33.139
2013    6        9    15   7    3.50   425.3    6.2      33.150
2013    6        9    15  14    3.51   425.2    6.2      33.160
2013    6        9    15  20    3.51   425.2    6.2      33.170
2013    6        9    15  27    3.51   425.1    6.2      33.180
2013    6        9    15  33    3.51   425.1    6.2      33.191
2013    6        9    15  40    3.52   425.0    6.2      33.201
2013    6        9    15  46    3.52   425.0    6.2      33.211
2013    6        9    15  53    3.52   424.9    6.2      33.221
2013    6        9    16   0    3.52   424.9    6.2      33.231
2013    6        9    16   6    3.52   424.8    6.2      33.241
2013    6        9    16  13    3.53   424.8    6.2      33.251
2013    6        9    16  19    3.53   424.7    6.3      33.260
2013    6        9    16  26    3.53   424.7    6.3      33.270
2013    6        9    16  32    3.53   424.6    6.3      33.280
2013    6        9    16  39    3.53   424.6    6.3      33.290
2013    6        9    16  46    3.54   424.5    6.3      33.300
2013    6        9    16  52    3.54   424.5    6.3      33.310
2013    6        9    16  59    3.54   424.4    6.3      33.320
2013    6        9    17   5    3.54   424.4    6.3      33.330
2013    6        9    17  12    3.54   424.3    6.3      33.339
2013    6        9    17  18    3.54   424.3    6.3      33.349
2013    6        9    17  25    3.55   424.2    6.3      33.359
2013    6        9    17  32    3.55   424.2    6.3      33.369
2013    6        9    17  38    3.55   424.1    6.3      33.378
2013    6        9    17  45    3.55   424.1    6.3      33.388
2013    6        9    17  51    3.55   424.0    6.3      33.397
2013    6        9    17  58    3.56   424.0    6.3      33.407
2013    6        9    18   4    3.56   423.9    6.3      33.416
2013    6        9    18  11    3.56   423.9    6.3      33.425
2013    6        9    18  18    3.56   423.8    6.3      33.434
2013    6        9    18  24    3.56   423.8    6.3      33.443
2013    6        9    18  31    3.57   423.7    6.3      33.452
2013    6        9    18  37    3.57   423.7    6.4      33.461
2013    6        9    18  44    3.57   423.6    6.4      33.470
2013    6        9    18  50    3.57   423.6    6.4      33.479
2013    6        9    18  57    3.57   423.5    6.4      33.487
2013    6        9    19   4    3.57   423.5    6.4      33.496
2013    6        9    19  10    3.58   423.4    6.4      33.505
2013    6        9    19  17    3.58   423.4    6.4      33.513
2013    6        9    19  23    3.58   423.3    6.4      33.522
2013    6        9    19  30    3.58   423.3    6.4      33.531
2013    6        9    19  36    3.58   423.2    6.4      33.540
2013    6        9    19  43    3.59   423.2    6.4      33.549
2013    6        9    19  50    3.59   423.1    6.4      33.558
2013    6        9    19  56    3.59   423.1    6.4      33.567
2013    6        9    20   3    3.59   423.0    6.4      33.577
2013    6        9    20   9    3.60   423.0    6.4      33.586
2013    6        9    20  16    3.60   423.0    6.4      33.597
2013    6        9    20  22    3.60   422.9    6.4      33.607
2013    6        9    20  29    3.60   422.9    6.4      33.619
2013    6        9    20  36    3.60   422.8    6.4      33.630
2013    6        9    20  42    3.61   422.8    6.4      33.642
2013    6        9    20  49    3.61   422.7    6.5      33.655
2013    6        9    20  55    3.61   422.7    6.5      33.668
2013    6        9    21   2    3.61   422.7    6.5      33.680
2013    6        9    21   8    3.62   422.6    6.5      33.694
2013    6        9    21  15    3.62   422.6    6.5      33.708
2013    6        9    21  22    3.62   422.6    6.5      33.722
2013    6        9    21  28    3.62   422.5    6.5      33.736
2013    6        9    21  35    3.63   422.5    6.5      33.751
2013    6        9    21  41    3.63   422.5    6.5      33.766
2013    6        9    21  48    3.63   422.4    6.5      33.781
2013    6        9    21  54    3.63   422.4    6.5      33.796
2013    6        9    22   1    3.64   422.3    6.5      33.811
2013    6        9    22   8    3.64   422.3    6.5      33.826
2013    6        9    22  14    3.64   422.3    6.5      33.842
2013    6        9    22  21    3.64   422.3    6.5      33.859
2013    6        9    22  27    3.65   422.2    6.5      33.876
2013    6        9    22  34    3.65   422.2    6.5      33.893
2013    6        9    22  40    3.65   422.2    6.6      33.910
2013    6        9    22  47    3.65   422.1    6.6      33.927
2013    6        9    22  53    3.66   422.1    6.6      33.945
2013    6        9    23   0    3.66   422.1    6.6      33.962
2013    6        9    23   7    3.66   422.1    6.6      33.979
2013    6        9    23  13    3.66   422.0    6.6      33.996
2013    6        9    23  20    3.66   422.0    6.6      34.013
2013    6        9    23  26    3.67   422.0    6.6      34.030
2013    6        9    23  33    3.67   422.0    6.6      34.046
2013    6        9    23  39    3.67   422.0    6.6      34.062
2013    6        9    23  46    3.67   421.9    6.6      34.078
2013    6        9    23  53    3.68   421.9    6.6      34.092
2013    6        9    23  59    3.68   421.9    6.6      34.107
2013    6       10     0   6    3.68   421.9    6.6      34.121
2013    6       10     0  12    3.68   421.8    6.6      34.135
2013    6       10     0  19    3.68   421.8    6.6      34.148
2013    6       10     0  25    3.69   421.8    6.6      34.162
2013    6       10     0  32    3.69   421.8    6.6      34.174
2013    6       10     0  39    3.69   421.7    6.6      34.187
2013    6       10     0  45    3.69   421.7    6.6      34.199
2013    6       10     0  52    3.69   421.7    6.7      34.211
2013    6       10     0  58    3.70   421.6    6.7      34.223
2013    6       10     1   5    3.70   421.6    6.7      34.235
2013    6       10     1  11    3.70   421.6    6.7      34.246
2013    6       10     1  18    3.70   421.6    6.7      34.257
2013    6       10     1  25    3.71   421.5    6.7      34.268
2013    6       10     1  31    3.71   421.5    6.7      34.279
2013    6       10     1  38    3.71   421.5    6.7      34.290
2013    6       10     1  44    3.71   421.4    6.7      34.301
2013    6       10     1  51    3.71   421.4    6.7      34.311
2013    6       10     1  57    3.72   421.4    6.7      34.322
2013    6       10     2   4    3.72   421.4    6.7      34.332
2013    6       10     2  11    3.72   421.3    6.7      34.342
2013    6       10     2  17    3.72   421.3    6.7      34.353
2013    6       10     2  24    3.72   421.3    6.7      34.363
2013    6       10     2  30    3.73   421.2    6.7      34.374
2013    6       10     2  37    3.73   421.2    6.7      34.384
2013    6       10     2  43    3.73   421.2    6.7      34.395
2013    6       10     2  50    3.73   421.2    6.7      34.406
2013    6       10     2  57    3.74   421.1    6.7      34.417
2013    6       10     3   3    3.74   421.1    6.7      34.428
2013    6       10     3  10    3.74   421.1    6.7      34.440
2013    6       10     3  16    3.74   421.1    6.7      34.451
2013    6       10     3  23    3.75   421.0    6.7      34.464
2013    6       10     3  29    3.75   421.0    6.8      34.477
2013    6       10     3  36    3.75   421.0    6.8      34.490
2013    6       10     3  43    3.75   421.0    6.8      34.505
2013    6       10     3  49    3.76   421.0    6.8      34.520
2013    6       10     3  56    3.76   421.0    6.8      34.536
2013    6       10     4   2    3.76   420.9    6.8      34.553
2013    6       10     4   9    3.76   420.9    6.8      34.570
2013    6       10     4  15    3.77   420.9    6.8      34.587
2013    6       10     4  22    3.77   420.9    6.8      34.605
2013    6       10     4  29    3.77   420.9    6.8      34.624
2013    6       10     4  35    3.77   420.9    6.8      34.643
2013    6       10     4  42    3.78   420.9    6.8      34.662
2013    6       10     4  48    3.78   420.9    6.8      34.681
2013    6       10     4  55    3.78   420.9    6.8      34.701
2013    6       10     5   1    3.78   420.9    6.8      34.720
2013    6       10     5   8    3.79   420.9    6.8      34.740
2013    6       10     5  15    3.79   420.9    6.8      34.760
2013    6       10     5  21    3.79   420.9    6.8      34.781
2013    6       10     5  28    3.80   420.9    6.9      34.803
2013    6       10     5  34    3.80   420.9    6.9      34.826
2013    6       10     5  41    3.80   420.9    6.9      34.849
2013    6       10     5  47    3.80   420.9    6.9      34.873
2013    6       10     5  54    3.81   420.9    6.9      34.897
2013    6       10     6   0    3.81   420.9    6.9      34.922
2013    6       10     6   7    3.81   420.9    6.9      34.947
2013    6       10     6  14    3.81   420.9    6.9      34.972
2013    6       10     6  20    3.82   420.9    6.9      34.997
2013    6       10     6  27    3.82   420.9    6.9      35.022
2013    6       10     6  33    3.82   421.0    6.9      35.046
2013    6       10     6  40    3.82   421.0    6.9      35.071
2013    6       10     6  46    3.83   421.0    6.9      35.095
2013    6       10     6  53    3.83   421.0    6.9      35.118
2013    6       10     7   0    3.83   421.0    6.9      35.141
2013    6       10     7   6    3.83   421.0    6.9      35.162
2013    6       10     7  13    3.84   421.0    6.9      35.184
2013    6       10     7  19    3.84   421.0    6.9      35.205
2013    6       10     7  26    3.84   421.0    7.0      35.226
2013    6       10     7  32    3.84   421.0    7.0      35.246
2013    6       10     7  39    3.85   421.0    7.0      35.266
2013    6       10     7  46    3.85   421.0    7.0      35.287
2013    6       10     7  52    3.85   421.1    7.0      35.307
2013    6       10     7  59    3.85   421.1    7.0      35.328
2013    6       10     8   5    3.86   421.1    7.0      35.349
2013    6       10     8  12    3.86   421.1    7.0      35.370
2013    6       10     8  18    3.86   421.1    7.0      35.392
2013    6       10     8  25    3.86   421.1    7.0      35.413
2013    6       10     8  32    3.87   421.1    7.0      35.435
2013    6       10     8  38    3.87   421.2    7.0      35.456
2013    6       10     8  45    3.87   421.2    7.0      35.477
2013    6       10     8  51    3.87   421.2    7.0      35.498
2013    6       10     8  58    3.88   421.2    7.0      35.519
2013    6       10     9   4    3.88   421.2    7.0      35.540
2013    6       10     9  11    3.88   421.3    7.0      35.560
2013    6       10     9  18    3.88   421.3    7.0      35.580
2013    6       10     9  24    3.89   421.3    7.0      35.599
2013    6       10     9  31    3.89   421.3    7.0      35.618
2013    6       10     9  37    3.89   421.4    7.0      35.636
2013    6       10     9  44    3.89   421.4    7.0      35.654
2013    6       10     9  50    3.90   421.4    7.0      35.672
2013    6       10     9  57    3.90   421.4    7.0      35.689
2013    6       10    10   4    3.90   421.4    7.1      35.707
2013    6       10    10  10    3.90   421.5    7.1      35.724
2013    6       10    10  17    3.91   421.5    7.1      35.740
2013    6       10    10  23    3.91   421.5    7.1      35.757
2013    6       10    10  30    3.91   421.5    7.1      35.774
2013    6       10    10  36    3.91   421.5    7.1      35.790
2013    6       10    10  43    3.92   421.6    7.1      35.807
2013    6       10    10  50    3.92   421.6    7.1      35.824
2013    6       10    10  56    3.92   421.6    7.1      35.841
2013    6       10    11   3    3.92   421.6    7.1      35.859
2013    6       10    11   9    3.93   421.7    7.1      35.877
2013    6       10    11  16    3.93   421.7    7.1      35.895
2013    6       10    11  22    3.93   421.7    7.1      35.913
2013    6       10    11  29    3.93   421.7    7.1      35.931
2013    6       10    11  36    3.94   421.8    7.1      35.950
2013    6       10    11  42    3.94   421.8    7.1      35.969
2013    6       10    11  49    3.94   421.8    7.1      35.989
2013    6       10    11  55    3.94   421.8    7.1      36.009
2013    6       10    12   2    3.95   421.9    7.1      36.029
2013    6       10    12   8    3.95   421.9    7.1      36.049
2013    6       10    12  15    3.95   421.9    7.1      36.070
2013    6       10    12  22    3.95   422.0    7.1      36.090
2013    6       10    12  28    3.96   422.0    7.1      36.112
2013    6       10    12  35    3.96   422.0    7.1      36.134
2013    6       10    12  41    3.96   422.1    7.1      36.157
2013    6       10    12  48    3.96   422.1    7.1      36.180
2013    6       10    12  54    3.97   422.2    7.1      36.204
2013    6       10    13   1    3.97   422.2    7.1      36.228
2013    6       10    13   7    3.97   422.2    7.1      36.253
2013    6       10    13  14    3.97   422.3    7.1      36.278
2013    6       10    13  21    3.97   422.3    7.2      36.304
2013    6       10    13  27    3.98   422.4    7.2      36.330
2013    6       10    13  34    3.98   422.4    7.2      36.356
2013    6       10    13  40    3.98   422.5    7.2      36.382
2013    6       10    13  47    3.98   422.5    7.2      36.409
2013    6       10    13  53    3.99   422.6    7.2      36.435
2013    6       10    14   0    3.99   422.6    7.2      36.460
2013    6       10    14   7    3.99   422.6    7.2      36.486
2013    6       10    14  13    3.99   422.7    7.2      36.511
2013    6       10    14  20    4.00   422.7    7.2      36.537
2013    6       10    14  26    4.00   422.8    7.2      36.562
2013    6       10    14  33    4.00   422.8    7.2      36.587
2013    6       10    14  39    4.00   422.9    7.2      36.613
2013    6       10    14  46    4.00   422.9    7.2      36.638
2013    6       10    14  53    4.01   423.0    7.2      36.663
2013    6       10    14  59    4.01   423.0    7.2      36.688
2013    6       10    15   6    4.01   423.0    7.2      36.715
2013    6       10    15  12    4.01   423.1    7.2      36.741
2013    6       10    15  19    4.02   423.1    7.2      36.769
2013    6       10    15  25    4.02   423.2    7.2      36.797
2013    6       10    15  32    4.02   423.3    7.2      36.826
2013    6       10    15  39    4.02   423.3    7.2      36.855
2013    6       10    15  45    4.03   423.4    7.2      36.885
2013    6       10    15  52    4.03   423.4    7.2      36.915
2013    6       10    15  58    4.03   423.5    7.2      36.946
2013    6       10    16   5    4.04   423.5    7.3      36.977
2013    6       10    16  11    4.04   423.6    7.3      37.009
2013    6       10    16  18    4.04   423.7    7.3      37.042
2013    6       10    16  25    4.04   423.8    7.3      37.076
2013    6       10    16  31    4.05   423.8    7.3      37.110
2013    6       10    16  38    4.05   423.9    7.3      37.145
2013    6       10    16  44    4.05   424.0    7.3      37.180
2013    6       10    16  51    4.06   424.1    7.3      37.216
2013    6       10    16  57    4.06   424.1    7.3      37.252
2013    6       10    17   4    4.06   424.2    7.3      37.288
2013    6       10    17  11    4.06   424.3    7.3      37.324
2013    6       10    17  17    4.07   424.4    7.3      37.359
2013    6       10    17  24    4.07   424.5    7.3      37.395
2013    6       10    17  30    4.07   424.6    7.3      37.431
2013    6       10    17  37    4.07   424.7    7.3      37.466
2013    6       10    17  43    4.08   424.8    7.3      37.501
2013    6       10    17  50    4.08   424.8    7.3      37.534
2013    6       10    17  57    4.08   424.9    7.3      37.567
2013    6       10    18   3    4.08   425.0    7.3      37.599
2013    6       10    18  10    4.08   425.1    7.3      37.630
2013    6       10    18  16    4.09   425.2    7.3      37.660
2013    6       10    18  23    4.09   425.3    7.3      37.690
2013    6       10    18  29    4.09   425.4    7.3      37.719
2013    6       10    18  36    4.09   425.4    7.3      37.747
2013    6       10    18  43    4.09   425.5    7.3      37.775
2013    6       10    18  49    4.10   425.6    7.3      37.802
2013    6       10    18  56    4.10   425.7    7.3      37.829
2013    6       10    19   2    4.10   425.8    7.3      37.856
2013    6       10    19   9    4.10   425.9    7.3      37.882
2013    6       10    19  15    4.10   425.9    7.3      37.908
2013    6       10    19  22    4.11   426.0    7.3      37.934
2013    6       10    19  29    4.11   426.1    7.3      37.960
2013    6       10    19  35    4.11   426.2    7.3      37.986
2013    6       10    19  42    4.11   426.3    7.3      38.012
2013    6       10    19  48    4.11   426.4    7.3      38.037
2013    6       10    19  55    4.12   426.4    7.3      38.063
2013    6       10    20   1    4.12   426.5    7.4      38.089
2013    6       10    20   8    4.12   426.6    7.4      38.116
2013    6       10    20  14    4.12   426.7    7.4      38.142
2013    6       10    20  21    4.12   426.8    7.4      38.169
2013    6       10    20  28    4.13   426.8    7.4      38.196
2013    6       10    20  34    4.13   426.9    7.4      38.224
2013    6       10    20  41    4.13   427.0    7.4      38.252
2013    6       10    20  47    4.13   427.1    7.4      38.280
2013    6       10    20  54    4.14   427.2    7.4      38.308
2013    6       10    21   0    4.14   427.3    7.4      38.337
2013    6       10    21   7    4.14   427.3    7.4      38.366
2013    6       10    21  14    4.14   427.4    7.4      38.396
2013    6       10    21  20    4.14   427.5    7.4      38.427
2013    6       10    21  27    4.15   427.6    7.4      38.458
2013    6       10    21  33    4.15   427.7    7.4      38.489
2013    6       10    21  40    4.15   427.8    7.4      38.521
2013    6       10    21  46    4.15   427.9    7.4      38.553
2013    6       10    21  53    4.15   428.0    7.4      38.585
2013    6       10    22   0    4.16   428.1    7.4      38.617
2013    6       10    22   6    4.16   428.2    7.4      38.649
2013    6       10    22  13    4.16   428.3    7.4      38.682
2013    6       10    22  19    4.16   428.4    7.4      38.715
2013    6       10    22  26    4.16   428.5    7.4      38.747
2013    6       10    22  32    4.17   428.6    7.4      38.780
2013    6       10    22  39    4.17   428.7    7.4      38.812
2013    6       10    22  46    4.17   428.8    7.4      38.844
2013    6       10    22  52    4.17   428.8    7.4      38.876
2013    6       10    22  59    4.17   428.9    7.4      38.909
2013    6       10    23   5    4.18   429.0    7.4      38.941
2013    6       10    23  12    4.18   429.1    7.4      38.974
2013    6       10    23  18    4.18   429.2    7.4      39.007
2013    6       10    23  25    4.18   429.3    7.4      39.039
2013    6       10    23  32    4.18   429.4    7.4      39.073
2013    6       10    23  38    4.19   429.5    7.4      39.107
2013    6       10    23  45    4.19   429.6    7.4      39.142
2013    6       10    23  51    4.19   429.8    7.4      39.178
2013    6       10    23  58    4.19   429.9    7.4      39.214
2013    6       11     0   4    4.19   430.0    7.4      39.251
2013    6       11     0  11    4.20   430.1    7.4      39.288
2013    6       11     0  18    4.20   430.2    7.4      39.326
2013    6       11     0  24    4.20   430.3    7.4      39.364
2013    6       11     0  31    4.20   430.4    7.4      39.403
2013    6       11     0  37    4.20   430.6    7.4      39.441
2013    6       11     0  44    4.21   430.7    7.4      39.480
2013    6       11     0  50    4.21   430.8    7.4      39.518
2013    6       11     0  57    4.21   430.9    7.4      39.556
2013    6       11     1   4    4.21   431.1    7.4      39.594
2013    6       11     1  10    4.21   431.2    7.4      39.631
2013    6       11     1  17    4.22   431.3    7.4      39.668
2013    6       11     1  23    4.22   431.4    7.4      39.704
2013    6       11     1  30    4.22   431.5    7.4      39.740
2013    6       11     1  36    4.22   431.7    7.4      39.776
2013    6       11     1  43    4.22   431.8    7.4      39.811
2013    6       11     1  50    4.23   431.9    7.4      39.846
2013    6       11     1  56    4.23   432.0    7.4      39.881
2013    6       11     2   3    4.23   432.1    7.4      39.917
2013    6       11     2   9    4.23   432.2    7.4      39.953
2013    6       11     2  16    4.23   432.4    7.4      39.989
2013    6       11     2  22    4.24   432.5    7.4      40.025
2013    6       11     2  29    4.24   432.6    7.4      40.062
2013    6       11     2  35    4.24   432.7    7.4      40.101
2013    6       11     2  42    4.24   432.8    7.4      40.141
2013    6       11     2  49    4.24   432.9    7.4      40.182
2013    6       11     2  55    4.25   433.0    7.4      40.224
2013    6       11     3   2    4.25   433.2    7.4      40.268
2013    6       11     3   8    4.25   433.3    7.4      40.313
2013    6       11     3  15    4.25   433.4    7.4      40.360
2013    6       11     3  21    4.26   433.5    7.4      40.407
2013    6       11     3  28    4.26   433.7    7.5      40.456
2013    6       11     3  35    4.26   433.8    7.5      40.505
2013    6       11     3  41    4.26   433.9    7.5      40.554
2013    6       11     3  48    4.27   434.1    7.5      40.605
2013    6       11     3  54    4.27   434.2    7.5      40.654
2013    6       11     4   1    4.27   434.4    7.5      40.703
2013    6       11     4   7    4.27   434.5    7.5      40.752
2013    6       11     4  14    4.27   434.6    7.5      40.799
2013    6       11     4  21    4.28   434.8    7.5      40.846
2013    6       11     4  27    4.28   434.9    7.5      40.892
2013    6       11     4  34    4.28   435.1    7.5      40.938
2013    6       11     4  40    4.28   435.2    7.5      40.982
2013    6       11     4  47    4.28   435.4    7.5      41.025
2013    6       11     4  53    4.28   435.5    7.5      41.068
2013    6       11     5   0    4.29   435.7    7.5      41.111
2013    6       11     5   7    4.29   435.9    7.5      41.152
2013    6       11     5  13    4.29   436.0    7.5      41.193
2013    6       11     5  20    4.29   436.2    7.5      41.233
2013    6       11     5  26    4.29   436.3    7.5      41.273
2013    6       11     5  33    4.29   436.5    7.5      41.312
2013    6       11     5  39    4.29   436.6    7.5      41.350
2013    6       11     5  46    4.29   436.8    7.5      41.388
2013    6       11     5  53    4.30   436.9    7.5      41.425
2013    6       11     5  59    4.30   437.1    7.5      41.461
2013    6       11     6   6    4.30   437.3    7.5      41.497
2013    6       11     6  12    4.30   437.4    7.4      41.533
2013    6       11     6  19    4.30   437.6    7.4      41.567
2013    6       11     6  25    4.30   437.7    7.4      41.602
2013    6       11     6  32    4.30   437.9    7.4      41.636
2013    6       11     6  39    4.30   438.0    7.4      41.669
2013    6       11     6  45    4.30   438.2    7.4      41.702
2013    6       11     6  52    4.31   438.4    7.4      41.735
2013    6       11     6  58    4.31   438.5    7.4      41.768
2013    6       11     7   5    4.31   438.7    7.4      41.800
2013    6       11     7  11    4.31   438.8    7.4      41.832
2013    6       11     7  18    4.31   439.0    7.4      41.864
2013    6       11     7  25    4.31   439.1    7.4      41.896
2013    6       11     7  31    4.31   439.3    7.4      41.928
2013    6       11     7  38    4.31   439.4    7.4      41.960
2013    6       11     7  44    4.32   439.6    7.4      41.993
2013    6       11     7  51    4.32   439.7    7.4      42.026
2013    6       11     7  57    4.32   439.9    7.4      42.059
2013    6       11     8   4    4.32   440.0    7.4      42.093
2013    6       11     8  10    4.32   440.2    7.4      42.127
2013    6       11     8  17    4.32   440.4    7.4      42.163
2013    6       11     8  24    4.32   440.5    7.4      42.200
2013    6       11     8  30    4.33   440.7    7.4      42.238
2013    6       11     8  37    4.33   440.8    7.4      42.277
2013    6       11     8  43    4.33   441.0    7.4      42.318
2013    6       11     8  50    4.33   441.1    7.4      42.362
2013    6       11     8  56    4.33   441.3    7.4      42.408
2013    6       11     9   3    4.34   441.5    7.4      42.458
2013    6       11     9  10    4.34   441.6    7.4      42.511
2013    6       11     9  16    4.34   441.8    7.4      42.567
2013    6       11     9  23    4.34   442.0    7.4      42.625
2013    6       11     9  29    4.35   442.1    7.4      42.685
2013    6       11     9  36    4.35   442.3    7.4      42.747
2013    6       11     9  42    4.35   442.5    7.4      42.811
2013    6       11     9  49    4.35   442.7    7.4      42.877
2013    6       11     9  56    4.36   442.9    7.4      42.945
2013    6       11    10   2    4.36   443.0    7.4      43.014
2013    6       11    10   9    4.36   443.2    7.4      43.084
2013    6       11    10  15    4.36   443.4    7.4      43.154
2013    6       11    10  22    4.36   443.6    7.4      43.223
2013    6       11    10  28    4.37   443.8    7.4      43.292
2013    6       11    10  35    4.37   444.0    7.4      43.359
2013    6       11    10  42    4.37   444.2    7.4      43.426
2013    6       11    10  48    4.37   444.4    7.4      43.492
2013    6       11    10  55    4.37   444.6    7.4      43.558
2013    6       11    11   1    4.37   444.8    7.4      43.621
2013    6       11    11   8    4.38   445.0    7.4      43.683
2013    6       11    11  14    4.38   445.2    7.4      43.743
2013    6       11    11  21    4.38   445.4    7.4      43.801
2013    6       11    11  28    4.38   445.6    7.4      43.858
2013    6       11    11  34    4.38   445.9    7.4      43.912
2013    6       11    11  41    4.38   446.1    7.4      43.964
2013    6       11    11  47    4.38   446.3    7.4      44.015
2013    6       11    11  54    4.38   446.5    7.4      44.063
2013    6       11    12   0    4.38   446.7    7.4      44.110
2013    6       11    12   7    4.38   446.9    7.4      44.155
2013    6       11    12  14    4.38   447.1    7.4      44.198
2013    6       11    12  20    4.39   447.3    7.4      44.241
2013    6       11    12  27    4.39   447.6    7.4      44.282
2013    6       11    12  33    4.39   447.8    7.4      44.321
2013    6       11    12  40    4.39   448.0    7.4      44.360
2013    6       11    12  46    4.39   448.2    7.4      44.398
2013    6       11    12  53    4.39   448.4    7.4      44.435
2013    6       11    13   0    4.39   448.6    7.4      44.471
2013    6       11    13   6    4.39   448.9    7.4      44.507
2013    6       11    13  13    4.39   449.1    7.4      44.541
2013    6       11    13  19    4.39   449.3    7.4      44.576
2013    6       11    13  26    4.39   449.5    7.4      44.610
2013    6       11    13  32    4.39   449.7    7.3      44.643
2013    6       11    13  39    4.39   450.0    7.3      44.676
2013    6       11    13  45    4.39   450.2    7.3      44.709
2013    6       11    13  52    4.39   450.4    7.3      44.742
2013    6       11    13  59    4.39   450.6    7.3      44.775
2013    6       11    14   5    4.39   450.8    7.3      44.808
2013    6       11    14  12    4.39   451.1    7.3      44.840
2013    6       11    14  18    4.39   451.3    7.3      44.874
2013    6       11    14  25    4.39   451.5    7.3      44.907
2013    6       11    14  31    4.39   451.7    7.3      44.941
2013    6       11    14  38    4.39   451.9    7.3      44.975
2013    6       11    14  45    4.40   452.2    7.3      45.010
2013    6       11    14  51    4.40   452.4    7.3      45.046
2013    6       11    14  58    4.40   452.6    7.3      45.082
2013    6       11    15   4    4.40   452.8    7.3      45.120
2013    6       11    15  11    4.40   453.1    7.3      45.158
2013    6       11    15  17    4.40   453.3    7.3      45.198
2013    6       11    15  24    4.40   453.5    7.2      45.238
2013    6       11    15  31    4.40   453.8    7.2      45.281
2013    6       11    15  37    4.41   454.0    7.2      45.324
2013    6       11    15  44    4.41   454.2    7.2      45.370
2013    6       11    15  50    4.41   454.4    7.2      45.418
2013    6       11    15  57    4.41   454.7    7.2      45.468
2013    6       11    16   3    4.41   454.9    7.2      45.520
2013    6       11    16  10    4.41   455.1    7.2      45.575
2013    6       11    16  17    4.42   455.4    7.2      45.635
2013    6       11    16  23    4.42   455.6    7.2      45.700
2013    6       11    16  30    4.42   455.9    7.2      45.771
2013    6       11    16  36    4.42   456.1    7.3      45.845
2013    6       11    16  43    4.43   456.4    7.3      45.924
2013    6       11    16  49    4.43   456.7    7.3      46.006
2013    6       11    16  56    4.43   457.0    7.3      46.090
2013    6       11    17   3    4.43   457.2    7.3      46.175
2013    6       11    17   9    4.43   457.5    7.3      46.262
2013    6       11    17  16    4.44   457.8    7.3      46.349
2013    6       11    17  22    4.44   458.2    7.3      46.436
2013    6       11    17  29    4.44   458.5    7.3      46.522
2013    6       11    17  35    4.44   458.8    7.3      46.606
2013    6       11    17  42    4.44   459.1    7.3      46.687
2013    6       11    17  49    4.44   459.4    7.3      46.764
2013    6       11    17  55    4.44   459.8    7.3      46.839
2013    6       11    18   2    4.44   460.1    7.3      46.911
2013    6       11    18   8    4.44   460.4    7.3      46.981
2013    6       11    18  15    4.45   460.7    7.3      47.048
2013    6       11    18  21    4.45   461.0    7.2      47.114
2013    6       11    18  28    4.45   461.3    7.2      47.178
2013    6       11    18  34    4.45   461.7    7.2      47.240
2013    6       11    18  41    4.45   462.0    7.2      47.301
2013    6       11    18  48    4.45   462.3    7.2      47.362
2013    6       11    18  54    4.45   462.6    7.2      47.421
2013    6       11    19   1    4.45   462.9    7.2      47.480
2013    6       11    19   7    4.45   463.2    7.2      47.538
2013    6       11    19  14    4.45   463.6    7.2      47.596
2013    6       11    19  20    4.45   463.9    7.2      47.653
2013    6       11    19  27    4.45   464.2    7.2      47.710
2013    6       11    19  34    4.45   464.5    7.2      47.767
2013    6       11    19  40    4.45   464.8    7.2      47.824
2013    6       11    19  47    4.45   465.1    7.2      47.882
2013    6       11    19  53    4.45   465.5    7.2      47.939
2013    6       11    20   0    4.45   465.8    7.2      47.997
2013    6       11    20   6    4.45   466.1    7.2      48.057
2013    6       11    20  13    4.45   466.4    7.2      48.119
2013    6       11    20  20    4.45   466.8    7.1      48.183
2013    6       11    20  26    4.45   467.1    7.1      48.249
2013    6       11    20  33    4.45   467.4    7.1      48.317
2013    6       11    20  39    4.45   467.8    7.1      48.388
2013    6       11    20  46    4.45   468.1    7.1      48.462
2013    6       11    20  52    4.45   468.5    7.1      48.539
2013    6       11    20  59    4.45   468.8    7.1      48.619
2013    6       11    21   6    4.45   469.2    7.1      48.700
2013    6       11    21  12    4.45   469.6    7.1      48.782
2013    6       11    21  19    4.45   470.0    7.1      48.864
2013    6       11    21  25    4.45   470.4    7.1      48.945
2013    6       11    21  32    4.45   470.7    7.1      49.025
2013    6       11    21  38    4.45   471.1    7.1      49.103
2013    6       11    21  45    4.45   471.5    7.1      49.181
2013    6       11    21  52    4.45   471.9    7.1      49.254
2013    6       11    21  58    4.44   472.3    7.1      49.324
2013    6       11    22   5    4.44   472.7    7.1      49.391
2013    6       11    22  11    4.44   473.1    7.1      49.455
2013    6       11    22  18    4.44   473.4    7.0      49.515
2013    6       11    22  24    4.44   473.8    7.0      49.572
2013    6       11    22  31    4.44   474.2    7.0      49.627
2013    6       11    22  38    4.44   474.6    7.0      49.679
2013    6       11    22  44    4.44   474.9    7.0      49.728
2013    6       11    22  51    4.43   475.3    7.0      49.776
2013    6       11    22  57    4.43   475.6    7.0      49.821
2013    6       11    23   4    4.43   476.0    7.0      49.865
2013    6       11    23  10    4.43   476.3    7.0      49.907
2013    6       11    23  17    4.43   476.6    7.0      49.948
2013    6       11    23  24    4.43   477.0    7.0      49.989
2013    6       11    23  30    4.42   477.3    6.9      50.030
2013    6       11    23  37    4.42   477.7    6.9      50.072
2013    6       11    23  43    4.42   478.0    6.9      50.114
2013    6       11    23  50    4.42   478.4    6.9      50.156
2013    6       11    23  56    4.42   478.7    6.9      50.198
2013    6       12     0   3    4.41   479.0    6.9      50.241
2013    6       12     0  10    4.41   479.4    6.9      50.284
2013    6       12     0  16    4.41   479.7    6.9      50.327
2013    6       12     0  23    4.41   480.0    6.9      50.370
2013    6       12     0  29    4.40   480.4    6.9      50.414
2013    6       12     0  36    4.40   480.7    6.8      50.458
2013    6       12     0  42    4.40   481.1    6.8      50.502
2013    6       12     0  49    4.40   481.4    6.8      50.547
2013    6       12     0  56    4.39   481.8    6.8      50.592
2013    6       12     1   2    4.39   482.2    6.8      50.636
2013    6       12     1   9    4.39   482.6    6.8      50.680
2013    6       12     1  15    4.39   483.0    6.8      50.724
2013    6       12     1  22    4.38   483.3    6.8      50.767
2013    6       12     1  28    4.38   483.8    6.7      50.810
2013    6       12     1  35    4.38   484.2    6.7      50.851
2013    6       12     1  42    4.37   484.6    6.7      50.890
2013    6       12     1  48    4.37   485.0    6.7      50.928
2013    6       12     1  55    4.37   485.3    6.7      50.964
2013    6       12     2   1    4.36   485.7    6.7      50.998
2013    6       12     2   8    4.36   486.1    6.7      51.030
2013    6       12     2  14    4.36   486.5    6.7      51.063
2013    6       12     2  21    4.35   486.8    6.6      51.096
2013    6       12     2  27    4.35   487.2    6.6      51.129
2013    6       12     2  34    4.35   487.6    6.6      51.164
2013    6       12     2  41    4.34   487.9    6.6      51.201
2013    6       12     2  47    4.34   488.3    6.6      51.241
2013    6       12     2  54    4.34   488.7    6.6      51.286
2013    6       12     3   0    4.33   489.1    6.6      51.333
2013    6       12     3   7    4.33   489.5    6.5      51.384
2013    6       12     3  13    4.33   489.9    6.5      51.437
2013    6       12     3  20    4.32   490.3    6.5      51.493
2013    6       12     3  27    4.32   490.7    6.5      51.550
2013    6       12     3  33    4.32   491.1    6.5      51.610
2013    6       12     3  40    4.31   491.6    6.5      51.671
2013    6       12     3  46    4.31   492.0    6.5      51.734
2013    6       12     3  53    4.31   492.4    6.5      51.798
2013    6       12     3  59    4.30   492.8    6.5      51.862
2013    6       12     4   6    4.30   493.2    6.5      51.929
2013    6       12     4  13    4.30   493.6    6.4      52.000
2013    6       12     4  19    4.29   494.0    6.4      52.072
2013    6       12     4  26    4.29   494.4    6.4      52.147
2013    6       12     4  32    4.28   494.8    6.4      52.223
2013    6       12     4  39    4.28   495.3    6.4      52.300
2013    6       12     4  45    4.28   495.7    6.4      52.377
2013    6       12     4  52    4.27   496.2    6.4      52.452
2013    6       12     4  59    4.27   496.6    6.4      52.526
2013    6       12     5   5    4.26   497.1    6.4      52.600
2013    6       12     5  12    4.26   497.6    6.3      52.669
2013    6       12     5  18    4.25   498.0    6.3      52.732
2013    6       12     5  25    4.25   498.5    6.3      52.791
2013    6       12     5  31    4.24   499.0    6.3      52.844
2013    6       12     5  38    4.24   499.4    6.3      52.893
2013    6       12     5  45    4.23   499.9    6.3      52.937
2013    6       12     5  51    4.23   500.3    6.3      52.976
2013    6       12     5  58    4.22   500.8    6.2      53.010
2013    6       12     6   4    4.22   501.2    6.2      53.041
2013    6       12     6  11    4.21   501.6    6.2      53.068
2013    6       12     6  17    4.20   502.1    6.2      53.091
2013    6       12     6  24    4.20   502.5    6.2      53.110
2013    6       12     6  31    4.19   502.9    6.2      53.126
2013    6       12     6  37    4.19   503.3    6.1      53.139
2013    6       12     6  44    4.18   503.7    6.1      53.149
2013    6       12     6  50    4.17   504.1    6.1      53.157
2013    6       12     6  57    4.17   504.6    6.1      53.164
2013    6       12     7   3    4.16   505.0    6.1      53.169
2013    6       12     7  10    4.15   505.5    6.0      53.174
2013    6       12     7  17    4.15   505.9    6.0      53.177
2013    6       12     7  23    4.14   506.4    6.0      53.177
2013    6       12     7  30    4.13   506.8    6.0      53.174
2013    6       12     7  36    4.13   507.3    6.0      53.167
2013    6       12     7  43    4.12   507.7    5.9      53.156
2013    6       12     7  49    4.11   508.1    5.9      53.142
2013    6       12     7  56    4.10   508.5    5.9      53.122
2013    6       12     8   3    4.09   508.9    5.9      53.096
2013    6       12     8   9    4.09   509.2    5.9      53.066
2013    6       12     8  16    4.08   509.6    5.8      53.033
2013    6       12     8  22    4.07   509.9    5.8      52.997
2013    6       12     8  29    4.06   510.2    5.8      52.960
2013    6       12     8  35    4.05   510.6    5.8      52.930
2013    6       12     8  42    4.05   510.9    5.7      52.906
2013    6       12     8  49    4.04   511.3    5.7      52.888
2013    6       12     8  55    4.03   511.7    5.7      52.877
2013    6       12     9   2    4.02   512.1    5.7      52.872
2013    6       12     9   8    4.01   512.4    5.7      52.870
2013    6       12     9  15    4.01   512.8    5.6      52.873
2013    6       12     9  21    4.00   513.3    5.6      52.881
2013    6       12     9  28    3.99   513.7    5.6      52.892
2013    6       12     9  35    3.98   514.1    5.6      52.907
2013    6       12     9  41    3.98   514.5    5.6      52.920
2013    6       12     9  48    3.97   514.9    5.6      52.931
2013    6       12     9  54    3.96   515.3    5.5      52.940
2013    6       12    10   1    3.95   515.7    5.5      52.947
2013    6       12    10   7    3.94   516.1    5.5      52.953
2013    6       12    10  14    3.94   516.5    5.5      52.956
2013    6       12    10  21    3.93   516.9    5.5      52.959
2013    6       12    10  27    3.92   517.2    5.5      52.961
2013    6       12    10  34    3.91   517.6    5.4      52.962
2013    6       12    10  40    3.90   518.0    5.4      52.962
2013    6       12    10  47    3.89   518.3    5.4      52.962
2013    6       12    10  53    3.89   518.7    5.4      52.962
2013    6       12    11   0    3.88   519.0    5.4      52.961
2013    6       12    11   7    3.87   519.4    5.3      52.960
2013    6       12    11  13    3.86   519.8    5.3      52.957
2013    6       12    11  20    3.85   520.1    5.3      52.954
2013    6       12    11  26    3.84   520.5    5.3      52.949
2013    6       12    11  33    3.83   520.9    5.3      52.941
2013    6       12    11  39    3.83   521.2    5.3      52.931
2013    6       12    11  46    3.82   521.6    5.2      52.919
2013    6       12    11  52    3.81   521.9    5.2      52.905
2013    6       12    11  59    3.80   522.2    5.2      52.889
2013    6       12    12   6    3.79   522.6    5.2      52.871
2013    6       12    12  12    3.78   522.9    5.2      52.850
2013    6       12    12  19    3.77   523.2    5.2      52.828
2013    6       12    12  25    3.76   523.6    5.1      52.802
2013    6       12    12  32    3.75   523.9    5.1      52.775
2013    6       12    12  38    3.74   524.2    5.1      52.747
2013    6       12    12  45    3.74   524.5    5.1      52.717
2013    6       12    12  52    3.73   524.8    5.1      52.686
2013    6       12    12  58    3.72   525.1    5.1      52.653
2013    6       12    13   5    3.71   525.4    5.0      52.618
2013    6       12    13  11    3.70   525.7    5.0      52.582
2013    6       12    13  18    3.69   526.0    5.0      52.543
2013    6       12    13  24    3.68   526.3    5.0      52.503
2013    6       12    13  31    3.67   526.5    5.0      52.461
2013    6       12    13  38    3.66   526.8    5.0      52.417
2013    6       12    13  44    3.66   527.1    4.9      52.371
2013    6       12    13  51    3.65   527.4    4.9      52.323
2013    6       12    13  57    3.64   527.7    4.9      52.273
2013    6       12    14   4    3.63   528.0    4.9      52.222
2013    6       12    14  10    3.62   528.3    4.9      52.170
2013    6       12    14  17    3.61   528.5    4.9      52.117
2013    6       12    14  24    3.60   528.8    4.8      52.063
2013    6       12    14  30    3.59   529.1    4.8      52.009
2013    6       12    14  37    3.59   529.4    4.8      51.954
2013    6       12    14  43    3.58   529.7    4.8      51.898
2013    6       12    14  50    3.57   530.0    4.8      51.841
2013    6       12    14  56    3.56   530.3    4.8      51.783
2013    6       12    15   3    3.55   530.6    4.7      51.722
2013    6       12    15  10    3.54   530.8    4.7      51.659
2013    6       12    15  16    3.53   531.1    4.7      51.595
2013    6       12    15  23    3.52   531.4    4.7      51.525
2013    6       12    15  29    3.51   531.7    4.7      51.448
2013    6       12    15  36    3.50   531.9    4.6      51.366
2013    6       12    15  42    3.49   532.2    4.6      51.279
2013    6       12    15  49    3.48   532.4    4.6      51.188
2013    6       12    15  56    3.47   532.6    4.6      51.094
2013    6       12    16   2    3.46   532.8    4.6      50.996
2013    6       12    16   9    3.45   533.0    4.5      50.896
2013    6       12    16  15    3.44   533.1    4.5      50.796
2013    6       12    16  22    3.43   533.3    4.5      50.695
2013    6       12    16  28    3.42   533.5    4.5      50.594
2013    6       12    16  35    3.41   533.6    4.5      50.493
2013    6       12    16  42    3.40   533.7    4.5      50.396
2013    6       12    16  48    3.40   533.9    4.4      50.302
2013    6       12    16  55    3.39   534.0    4.4      50.211
2013    6       12    17   1    3.38   534.1    4.4      50.122
2013    6       12    17   8    3.37   534.2    4.4      50.035
2013    6       12    17  14    3.36   534.4    4.4      49.949
2013    6       12    17  21    3.35   534.5    4.4      49.865
2013    6       12    17  28    3.34   534.6    4.3      49.780
2013    6       12    17  34    3.34   534.6    4.3      49.695
2013    6       12    17  41    3.33   534.7    4.3      49.611
2013    6       12    17  47    3.32   534.8    4.3      49.526
2013    6       12    17  54    3.31   534.9    4.3      49.443
2013    6       12    18   0    3.30   534.9    4.3      49.358
2013    6       12    18   7    3.30   534.9    4.3      49.273
2013    6       12    18  13    3.29   535.0    4.3      49.190
2013    6       12    18  20    3.28   535.0    4.3      49.110
2013    6       12    18  27    3.27   535.1    4.2      49.032
2013    6       12    18  33    3.27   535.1    4.2      48.955
2013    6       12    18  40    3.26   535.2    4.2      48.880
2013    6       12    18  46    3.25   535.3    4.2      48.807
2013    6       12    18  53    3.24   535.3    4.2      48.735
2013    6       12    18  59    3.24   535.4    4.2      48.663
2013    6       12    19   6    3.23   535.4    4.2      48.592
2013    6       12    19  13    3.22   535.5    4.2      48.520
2013    6       12    19  19    3.21   535.6    4.2      48.450
2013    6       12    19  26    3.21   535.7    4.2      48.379
2013    6       12    19  32    3.20   535.7    4.2      48.307
2013    6       12    19  39    3.19   535.8    4.1      48.232
2013    6       12    19  45    3.18   535.9    4.1      48.156
2013    6       12    19  52    3.18   535.9    4.1      48.077
2013    6       12    19  59    3.17   536.0    4.1      47.998
2013    6       12    20   5    3.16   536.0    4.1      47.917
2013    6       12    20  12    3.16   536.1    4.1      47.835
2013    6       12    20  18    3.15   536.1    4.1      47.751
2013    6       12    20  25    3.14   536.2    4.1      47.667
2013    6       12    20  31    3.13   536.2    4.1      47.581
2013    6       12    20  38    3.13   536.2    4.1      47.495
2013    6       12    20  45    3.12   536.3    4.0      47.407
2013    6       12    20  51    3.11   536.3    4.0      47.319
2013    6       12    20  58    3.11   536.3    4.0      47.230
2013    6       12    21   4    3.10   536.3    4.0      47.141
2013    6       12    21  11    3.09   536.3    4.0      47.050
2013    6       12    21  17    3.08   536.3    4.0      46.960
2013    6       12    21  24    3.08   536.3    4.0      46.868
2013    6       12    21  31    3.07   536.3    4.0      46.776
2013    6       12    21  37    3.06   536.3    4.0      46.683
2013    6       12    21  44    3.06   536.3    4.0      46.591
2013    6       12    21  50    3.05   536.3    3.9      46.497
2013    6       12    21  57    3.04   536.3    3.9      46.403
2013    6       12    22   3    3.04   536.3    3.9      46.309
2013    6       12    22  10    3.03   536.3    3.9      46.215
2013    6       12    22  17    3.02   536.2    3.9      46.121
2013    6       12    22  23    3.02   536.2    3.9      46.027
2013    6       12    22  30    3.01   536.2    3.9      45.932
2013    6       12    22  36    3.00   536.1    3.9      45.839
2013    6       12    22  43    3.00   536.1    3.9      45.745
2013    6       12    22  49    2.99   536.0    3.9      45.652
2013    6       12    22  56    2.99   536.0    3.9      45.560
2013    6       12    23   3    2.98   535.9    3.9      45.468
2013    6       12    23   9    2.97   535.8    3.8      45.377
2013    6       12    23  16    2.97   535.8    3.8      45.287
2013    6       12    23  22    2.96   535.7    3.8      45.198
2013    6       12    23  29    2.96   535.6    3.8      45.110
2013    6       12    23  35    2.95   535.5    3.8      45.024
2013    6       12    23  42    2.95   535.5    3.8      44.939
2013    6       12    23  49    2.94   535.4    3.8      44.856
2013    6       12    23  55    2.94   535.3    3.8      44.774
2013    6       13     0   2    2.93   535.2    3.8      44.694
