year    month   day   hour  minute  B_enl V_enl   n_enl       T_enl
[year] [month] [day] [hour][minute] [nT]  [km/s]  [cm-3]      [kK]
2013    5       30     0   2    2.88   409.3    5.8      28.455
2013    5       30     0   9    2.88   409.2    5.8      28.436
2013    5       30     0  16    2.88   409.1    5.8      28.417
2013    5       30     0  23    2.87   409.0    5.8      28.398
2013    5       30     0  30    2.87   408.9    5.8      28.379
2013    5       30     0  36    2.87   408.8    5.8      28.360
2013    5       30     0  43    2.87   408.7    5.8      28.340
2013    5       30     0  50    2.87   408.6    5.8      28.321
2013    5       30     0  57    2.87   408.5    5.8      28.301
2013    5       30     1   4    2.87   408.5    5.8      28.281
2013    5       30     1  11    2.87   408.4    5.8      28.261
2013    5       30     1  18    2.87   408.3    5.8      28.241
2013    5       30     1  25    2.86   408.2    5.8      28.221
2013    5       30     1  32    2.86   408.1    5.8      28.201
2013    5       30     1  39    2.86   408.0    5.8      28.181
2013    5       30     1  46    2.86   407.9    5.8      28.161
2013    5       30     1  53    2.86   407.8    5.8      28.141
2013    5       30     2   0    2.86   407.7    5.8      28.121
2013    5       30     2   6    2.86   407.6    5.8      28.101
2013    5       30     2  13    2.86   407.5    5.8      28.081
2013    5       30     2  20    2.86   407.4    5.8      28.061
2013    5       30     2  27    2.85   407.3    5.8      28.042
2013    5       30     2  34    2.85   407.2    5.8      28.022
2013    5       30     2  41    2.85   407.1    5.8      28.002
2013    5       30     2  48    2.85   407.0    5.8      27.982
2013    5       30     2  55    2.85   406.9    5.8      27.963
2013    5       30     3   2    2.85   406.8    5.8      27.943
2013    5       30     3   9    2.85   406.7    5.8      27.923
2013    5       30     3  16    2.85   406.5    5.8      27.904
2013    5       30     3  23    2.85   406.4    5.8      27.885
2013    5       30     3  30    2.85   406.3    5.8      27.865
2013    5       30     3  36    2.84   406.2    5.8      27.846
2013    5       30     3  43    2.84   406.1    5.8      27.827
2013    5       30     3  50    2.84   406.0    5.8      27.807
2013    5       30     3  57    2.84   405.9    5.8      27.788
2013    5       30     4   4    2.84   405.8    5.8      27.769
2013    5       30     4  11    2.84   405.7    5.8      27.749
2013    5       30     4  18    2.84   405.6    5.8      27.730
2013    5       30     4  25    2.84   405.5    5.8      27.711
2013    5       30     4  32    2.84   405.4    5.8      27.692
2013    5       30     4  39    2.84   405.2    5.8      27.673
2013    5       30     4  46    2.83   405.1    5.8      27.654
2013    5       30     4  53    2.83   405.0    5.8      27.635
2013    5       30     5   0    2.83   404.9    5.8      27.616
2013    5       30     5   6    2.83   404.8    5.8      27.597
2013    5       30     5  13    2.83   404.7    5.8      27.578
2013    5       30     5  20    2.83   404.6    5.8      27.559
2013    5       30     5  27    2.83   404.4    5.8      27.540
2013    5       30     5  34    2.83   404.3    5.8      27.521
2013    5       30     5  41    2.83   404.2    5.8      27.503
2013    5       30     5  48    2.83   404.1    5.8      27.484
2013    5       30     5  55    2.82   404.0    5.8      27.466
2013    5       30     6   2    2.82   403.8    5.8      27.448
2013    5       30     6   9    2.82   403.7    5.8      27.430
2013    5       30     6  16    2.82   403.6    5.8      27.412
2013    5       30     6  23    2.82   403.5    5.8      27.395
2013    5       30     6  30    2.82   403.4    5.8      27.377
2013    5       30     6  37    2.82   403.2    5.8      27.360
2013    5       30     6  43    2.82   403.1    5.8      27.343
2013    5       30     6  50    2.82   403.0    5.8      27.326
2013    5       30     6  57    2.82   402.9    5.8      27.309
2013    5       30     7   4    2.82   402.7    5.8      27.292
2013    5       30     7  11    2.82   402.6    5.8      27.275
2013    5       30     7  18    2.81   402.5    5.8      27.259
2013    5       30     7  25    2.81   402.4    5.8      27.242
2013    5       30     7  32    2.81   402.2    5.8      27.226
2013    5       30     7  39    2.81   402.1    5.8      27.209
2013    5       30     7  46    2.81   402.0    5.8      27.193
2013    5       30     7  53    2.81   401.9    5.8      27.176
2013    5       30     8   0    2.81   401.7    5.8      27.160
2013    5       30     8   7    2.81   401.6    5.8      27.143
2013    5       30     8  13    2.81   401.5    5.8      27.127
2013    5       30     8  20    2.81   401.3    5.8      27.110
2013    5       30     8  27    2.81   401.2    5.8      27.093
2013    5       30     8  34    2.81   401.1    5.8      27.076
2013    5       30     8  41    2.81   401.0    5.8      27.059
2013    5       30     8  48    2.80   400.8    5.8      27.042
2013    5       30     8  55    2.80   400.7    5.8      27.025
2013    5       30     9   2    2.80   400.6    5.8      27.008
2013    5       30     9   9    2.80   400.4    5.8      26.991
2013    5       30     9  16    2.80   400.3    5.8      26.973
2013    5       30     9  23    2.80   400.2    5.8      26.956
2013    5       30     9  30    2.80   400.0    5.8      26.938
2013    5       30     9  37    2.80   399.9    5.8      26.920
2013    5       30     9  43    2.80   399.8    5.8      26.903
2013    5       30     9  50    2.80   399.6    5.8      26.884
2013    5       30     9  57    2.80   399.5    5.8      26.866
2013    5       30    10   4    2.80   399.4    5.8      26.848
2013    5       30    10  11    2.80   399.2    5.8      26.830
2013    5       30    10  18    2.80   399.1    5.8      26.811
2013    5       30    10  25    2.80   398.9    5.8      26.793
2013    5       30    10  32    2.79   398.8    5.8      26.774
2013    5       30    10  39    2.79   398.7    5.8      26.755
2013    5       30    10  46    2.79   398.5    5.8      26.736
2013    5       30    10  53    2.79   398.4    5.8      26.717
2013    5       30    11   0    2.79   398.2    5.8      26.698
2013    5       30    11   7    2.79   398.1    5.8      26.679
2013    5       30    11  13    2.79   398.0    5.8      26.660
2013    5       30    11  20    2.79   397.8    5.8      26.640
2013    5       30    11  27    2.79   397.7    5.8      26.621
2013    5       30    11  34    2.79   397.5    5.8      26.601
2013    5       30    11  41    2.79   397.4    5.8      26.582
2013    5       30    11  48    2.79   397.2    5.8      26.563
2013    5       30    11  55    2.79   397.1    5.8      26.543
2013    5       30    12   2    2.79   396.9    5.8      26.524
2013    5       30    12   9    2.79   396.8    5.8      26.504
2013    5       30    12  16    2.79   396.6    5.8      26.485
2013    5       30    12  23    2.79   396.5    5.8      26.466
2013    5       30    12  30    2.79   396.3    5.8      26.447
2013    5       30    12  37    2.78   396.2    5.8      26.428
2013    5       30    12  43    2.78   396.0    5.8      26.409
2013    5       30    12  50    2.78   395.9    5.8      26.391
2013    5       30    12  57    2.78   395.7    5.8      26.372
2013    5       30    13   4    2.78   395.6    5.8      26.354
2013    5       30    13  11    2.78   395.4    5.8      26.336
2013    5       30    13  18    2.78   395.2    5.8      26.319
2013    5       30    13  25    2.78   395.1    5.8      26.302
2013    5       30    13  32    2.78   394.9    5.8      26.284
2013    5       30    13  39    2.78   394.8    5.9      26.268
2013    5       30    13  46    2.78   394.6    5.9      26.251
2013    5       30    13  53    2.78   394.4    5.9      26.235
2013    5       30    14   0    2.78   394.3    5.9      26.219
2013    5       30    14   7    2.78   394.1    5.9      26.204
2013    5       30    14  13    2.78   393.9    5.9      26.189
2013    5       30    14  20    2.78   393.8    5.9      26.174
2013    5       30    14  27    2.78   393.6    5.9      26.160
2013    5       30    14  34    2.78   393.5    5.9      26.145
2013    5       30    14  41    2.78   393.3    5.9      26.131
2013    5       30    14  48    2.78   393.1    5.9      26.118
2013    5       30    14  55    2.78   393.0    5.9      26.105
2013    5       30    15   2    2.78   392.8    5.9      26.092
2013    5       30    15   9    2.78   392.6    5.9      26.079
2013    5       30    15  16    2.78   392.5    5.9      26.066
2013    5       30    15  23    2.78   392.3    5.9      26.054
2013    5       30    15  30    2.78   392.1    5.9      26.042
2013    5       30    15  37    2.79   391.9    5.9      26.031
2013    5       30    15  43    2.79   391.8    5.9      26.020
2013    5       30    15  50    2.79   391.6    5.9      26.008
2013    5       30    15  57    2.79   391.4    6.0      25.998
2013    5       30    16   4    2.79   391.3    6.0      25.987
2013    5       30    16  11    2.79   391.1    6.0      25.977
2013    5       30    16  18    2.79   390.9    6.0      25.967
2013    5       30    16  25    2.79   390.7    6.0      25.957
2013    5       30    16  32    2.79   390.6    6.0      25.947
2013    5       30    16  39    2.79   390.4    6.0      25.938
2013    5       30    16  46    2.79   390.2    6.0      25.929
2013    5       30    16  53    2.79   390.0    6.0      25.920
2013    5       30    17   0    2.79   389.9    6.0      25.911
2013    5       30    17   6    2.79   389.7    6.0      25.902
2013    5       30    17  13    2.80   389.5    6.0      25.894
2013    5       30    17  20    2.80   389.3    6.0      25.886
2013    5       30    17  27    2.80   389.2    6.0      25.878
2013    5       30    17  34    2.80   389.0    6.1      25.871
2013    5       30    17  41    2.80   388.8    6.1      25.863
2013    5       30    17  48    2.80   388.6    6.1      25.856
2013    5       30    17  55    2.80   388.5    6.1      25.850
2013    5       30    18   2    2.80   388.3    6.1      25.843
2013    5       30    18   9    2.81   388.1    6.1      25.837
2013    5       30    18  16    2.81   387.9    6.1      25.830
2013    5       30    18  23    2.81   387.7    6.1      25.825
2013    5       30    18  29    2.81   387.6    6.1      25.819
2013    5       30    18  36    2.81   387.4    6.1      25.813
2013    5       30    18  43    2.81   387.2    6.1      25.808
2013    5       30    18  50    2.81   387.0    6.1      25.803
2013    5       30    18  57    2.82   386.9    6.2      25.798
2013    5       30    19   4    2.82   386.7    6.2      25.793
2013    5       30    19  11    2.82   386.5    6.2      25.788
2013    5       30    19  18    2.82   386.3    6.2      25.784
2013    5       30    19  25    2.82   386.1    6.2      25.780
2013    5       30    19  32    2.83   386.0    6.2      25.775
2013    5       30    19  39    2.83   385.8    6.2      25.772
2013    5       30    19  46    2.83   385.6    6.2      25.768
2013    5       30    19  52    2.83   385.4    6.2      25.764
2013    5       30    19  59    2.83   385.2    6.2      25.761
2013    5       30    20   6    2.84   385.1    6.2      25.758
2013    5       30    20  13    2.84   384.9    6.3      25.755
2013    5       30    20  20    2.84   384.7    6.3      25.752
2013    5       30    20  27    2.84   384.5    6.3      25.750
2013    5       30    20  34    2.85   384.3    6.3      25.748
2013    5       30    20  41    2.85   384.2    6.3      25.746
2013    5       30    20  48    2.85   384.0    6.3      25.744
2013    5       30    20  55    2.85   383.8    6.3      25.743
2013    5       30    21   2    2.86   383.6    6.3      25.741
2013    5       30    21   9    2.86   383.5    6.3      25.741
2013    5       30    21  16    2.86   383.3    6.3      25.740
2013    5       30    21  22    2.87   383.1    6.4      25.740
2013    5       30    21  29    2.87   382.9    6.4      25.740
2013    5       30    21  36    2.87   382.8    6.4      25.741
2013    5       30    21  43    2.87   382.6    6.4      25.742
2013    5       30    21  50    2.88   382.4    6.4      25.743
2013    5       30    21  57    2.88   382.2    6.4      25.745
2013    5       30    22   4    2.88   382.0    6.4      25.747
2013    5       30    22  11    2.89   381.9    6.4      25.749
2013    5       30    22  18    2.89   381.7    6.5      25.752
2013    5       30    22  25    2.90   381.5    6.5      25.755
2013    5       30    22  32    2.90   381.4    6.5      25.759
2013    5       30    22  39    2.90   381.2    6.5      25.764
2013    5       30    22  46    2.91   381.0    6.5      25.768
2013    5       30    22  52    2.91   380.8    6.5      25.774
2013    5       30    22  59    2.92   380.7    6.5      25.779
2013    5       30    23   6    2.92   380.5    6.6      25.785
2013    5       30    23  13    2.93   380.3    6.6      25.792
2013    5       30    23  20    2.93   380.2    6.6      25.799
2013    5       30    23  27    2.93   380.0    6.6      25.807
2013    5       30    23  34    2.94   379.8    6.6      25.815
2013    5       30    23  41    2.94   379.7    6.6      25.824
2013    5       30    23  48    2.95   379.5    6.6      25.834
2013    5       30    23  55    2.95   379.3    6.7      25.844
2013    5       31     0   2    2.96   379.2    6.7      25.854
2013    5       31     0   9    2.97   379.0    6.7      25.865
2013    5       31     0  15    2.97   378.8    6.7      25.876
2013    5       31     0  22    2.98   378.7    6.7      25.889
2013    5       31     0  29    2.98   378.5    6.7      25.901
2013    5       31     0  36    2.99   378.4    6.8      25.914
2013    5       31     0  43    2.99   378.2    6.8      25.928
2013    5       31     0  50    3.00   378.0    6.8      25.942
2013    5       31     0  57    3.01   377.9    6.8      25.957
2013    5       31     1   4    3.01   377.7    6.8      25.972
2013    5       31     1  11    3.02   377.6    6.9      25.988
2013    5       31     1  18    3.03   377.4    6.9      26.004
2013    5       31     1  25    3.03   377.2    6.9      26.021
2013    5       31     1  32    3.04   377.1    6.9      26.038
2013    5       31     1  38    3.04   376.9    6.9      26.056
2013    5       31     1  45    3.05   376.8    7.0      26.074
2013    5       31     1  52    3.06   376.6    7.0      26.093
2013    5       31     1  59    3.07   376.4    7.0      26.112
2013    5       31     2   6    3.07   376.3    7.0      26.131
2013    5       31     2  13    3.08   376.1    7.0      26.151
2013    5       31     2  20    3.09   376.0    7.1      26.172
2013    5       31     2  27    3.09   375.8    7.1      26.193
2013    5       31     2  34    3.10   375.6    7.1      26.215
2013    5       31     2  41    3.11   375.5    7.1      26.237
2013    5       31     2  48    3.12   375.3    7.1      26.260
2013    5       31     2  55    3.12   375.2    7.2      26.283
2013    5       31     3   1    3.13   375.0    7.2      26.308
2013    5       31     3   8    3.14   374.8    7.2      26.333
2013    5       31     3  15    3.15   374.7    7.2      26.360
2013    5       31     3  22    3.15   374.5    7.3      26.387
2013    5       31     3  29    3.16   374.4    7.3      26.415
2013    5       31     3  36    3.17   374.2    7.3      26.445
2013    5       31     3  43    3.18   374.0    7.3      26.475
2013    5       31     3  50    3.19   373.9    7.4      26.507
2013    5       31     3  57    3.20   373.7    7.4      26.540
2013    5       31     4   4    3.21   373.6    7.4      26.575
2013    5       31     4  11    3.22   373.4    7.4      26.610
2013    5       31     4  18    3.22   373.3    7.5      26.647
2013    5       31     4  25    3.23   373.2    7.5      26.685
2013    5       31     4  32    3.24   373.0    7.5      26.725
2013    5       31     4  38    3.25   372.9    7.6      26.766
2013    5       31     4  45    3.26   372.8    7.6      26.808
2013    5       31     4  52    3.27   372.6    7.6      26.852
2013    5       31     4  59    3.29   372.5    7.7      26.897
2013    5       31     5   6    3.30   372.4    7.7      26.944
2013    5       31     5  13    3.31   372.3    7.7      26.992
2013    5       31     5  20    3.32   372.2    7.8      27.042
2013    5       31     5  27    3.33   372.1    7.8      27.093
2013    5       31     5  34    3.34   372.0    7.8      27.145
2013    5       31     5  41    3.35   371.9    7.9      27.199
2013    5       31     5  48    3.37   371.8    7.9      27.254
2013    5       31     5  55    3.38   371.7    7.9      27.310
2013    5       31     6   1    3.39   371.6    8.0      27.368
2013    5       31     6   8    3.40   371.5    8.0      27.426
2013    5       31     6  15    3.42   371.4    8.0      27.486
2013    5       31     6  22    3.43   371.3    8.1      27.547
2013    5       31     6  29    3.45   371.3    8.1      27.609
2013    5       31     6  36    3.46   371.2    8.2      27.672
2013    5       31     6  43    3.47   371.1    8.2      27.736
2013    5       31     6  50    3.49   371.1    8.3      27.800
2013    5       31     6  57    3.50   371.0    8.3      27.866
2013    5       31     7   4    3.52   371.0    8.3      27.935
2013    5       31     7  11    3.53   370.9    8.4      28.005
2013    5       31     7  18    3.55   370.9    8.4      28.081
2013    5       31     7  24    3.57   370.9    8.5      28.162
2013    5       31     7  31    3.58   370.9    8.5      28.249
2013    5       31     7  38    3.60   370.9    8.6      28.341
2013    5       31     7  45    3.61   371.0    8.6      28.437
2013    5       31     7  52    3.63   371.0    8.7      28.536
2013    5       31     7  59    3.65   371.0    8.7      28.637
2013    5       31     8   6    3.66   371.0    8.8      28.737
2013    5       31     8  13    3.68   371.1    8.8      28.836
2013    5       31     8  20    3.70   371.1    8.8      28.935
2013    5       31     8  27    3.71   371.1    8.9      29.034
2013    5       31     8  34    3.73   371.2    8.9      29.132
2013    5       31     8  41    3.74   371.2    9.0      29.231
2013    5       31     8  47    3.76   371.2    9.0      29.328
2013    5       31     8  54    3.78   371.3    9.1      29.425
2013    5       31     9   1    3.79   371.3    9.1      29.522
2013    5       31     9   8    3.81   371.4    9.1      29.618
2013    5       31     9  15    3.82   371.4    9.2      29.715
2013    5       31     9  22    3.84   371.5    9.2      29.811
2013    5       31     9  29    3.86   371.5    9.3      29.907
2013    5       31     9  36    3.87   371.6    9.3      30.004
2013    5       31     9  43    3.89   371.6    9.4      30.100
2013    5       31     9  50    3.91   371.7    9.4      30.198
2013    5       31     9  57    3.92   371.7    9.4      30.296
2013    5       31    10   4    3.94   371.8    9.5      30.397
2013    5       31    10  10    3.96   371.9    9.5      30.501
2013    5       31    10  17    3.98   372.0    9.6      30.607
2013    5       31    10  24    3.99   372.1    9.6      30.716
2013    5       31    10  31    4.01   372.2    9.6      30.827
2013    5       31    10  38    4.03   372.3    9.7      30.940
2013    5       31    10  45    4.05   372.4    9.7      31.054
2013    5       31    10  52    4.07   372.5    9.8      31.168
2013    5       31    10  59    4.08   372.6    9.8      31.282
2013    5       31    11   6    4.10   372.7    9.9      31.396
2013    5       31    11  13    4.12   372.8    9.9      31.510
2013    5       31    11  20    4.14   372.9    9.9      31.624
2013    5       31    11  27    4.16   373.0   10.0      31.739
2013    5       31    11  34    4.18   373.1   10.0      31.854
2013    5       31    11  41    4.19   373.3   10.1      31.969
2013    5       31    11  47    4.21   373.4   10.1      32.085
2013    5       31    11  54    4.23   373.5   10.2      32.202
2013    5       31    12   1    4.25   373.7   10.2      32.320
2013    5       31    12   8    4.27   373.8   10.3      32.439
2013    5       31    12  15    4.29   373.9   10.3      32.559
2013    5       31    12  22    4.31   374.1   10.3      32.681
2013    5       31    12  29    4.33   374.2   10.4      32.805
2013    5       31    12  36    4.35   374.4   10.4      32.931
2013    5       31    12  43    4.37   374.6   10.5      33.058
2013    5       31    12  50    4.39   374.7   10.5      33.188
2013    5       31    12  57    4.41   374.9   10.6      33.319
2013    5       31    13   4    4.44   375.1   10.6      33.452
2013    5       31    13  10    4.46   375.3   10.7      33.587
2013    5       31    13  17    4.48   375.5   10.8      33.724
2013    5       31    13  24    4.50   375.6   10.8      33.863
2013    5       31    13  31    4.52   375.8   10.9      34.004
2013    5       31    13  38    4.54   376.0   10.9      34.145
2013    5       31    13  45    4.57   376.2   11.0      34.288
2013    5       31    13  52    4.59   376.4   11.0      34.433
2013    5       31    13  59    4.61   376.6   11.1      34.579
2013    5       31    14   6    4.64   376.9   11.2      34.728
2013    5       31    14  13    4.66   377.1   11.2      34.883
2013    5       31    14  20    4.68   377.4   11.3      35.044
2013    5       31    14  27    4.71   377.6   11.4      35.214
2013    5       31    14  33    4.73   377.9   11.4      35.391
2013    5       31    14  40    4.76   378.2   11.5      35.577
2013    5       31    14  47    4.78   378.5   11.6      35.770
2013    5       31    14  54    4.80   378.8   11.6      35.969
2013    5       31    15   1    4.83   379.1   11.7      36.169
2013    5       31    15   8    4.85   379.5   11.8      36.371
2013    5       31    15  15    4.88   379.8   11.8      36.574
2013    5       31    15  22    4.90   380.1   11.9      36.777
2013    5       31    15  29    4.92   380.4   11.9      36.979
2013    5       31    15  36    4.95   380.8   12.0      37.181
2013    5       31    15  43    4.97   381.1   12.1      37.382
2013    5       31    15  50    4.99   381.4   12.1      37.583
2013    5       31    15  56    5.02   381.8   12.2      37.783
2013    5       31    16   3    5.04   382.1   12.2      37.983
2013    5       31    16  10    5.06   382.4   12.3      38.182
2013    5       31    16  17    5.09   382.8   12.3      38.381
2013    5       31    16  24    5.11   383.1   12.3      38.578
2013    5       31    16  31    5.13   383.5   12.4      38.776
2013    5       31    16  38    5.15   383.8   12.4      38.973
2013    5       31    16  45    5.18   384.2   12.5      39.169
2013    5       31    16  52    5.20   384.5   12.5      39.365
2013    5       31    16  59    5.22   384.9   12.6      39.560
2013    5       31    17   6    5.25   385.3   12.6      39.755
2013    5       31    17  13    5.27   385.6   12.7      39.950
2013    5       31    17  20    5.29   386.0   12.7      40.146
2013    5       31    17  26    5.32   386.4   12.8      40.347
2013    5       31    17  33    5.34   386.8   12.8      40.552
2013    5       31    17  40    5.36   387.2   12.8      40.763
2013    5       31    17  47    5.39   387.6   12.9      40.979
2013    5       31    17  54    5.41   388.1   12.9      41.200
2013    5       31    18   1    5.44   388.5   13.0      41.423
2013    5       31    18   8    5.46   388.9   13.0      41.649
2013    5       31    18  15    5.48   389.3   13.0      41.873
2013    5       31    18  22    5.51   389.8   13.1      42.097
2013    5       31    18  29    5.53   390.2   13.1      42.319
2013    5       31    18  36    5.55   390.6   13.1      42.541
2013    5       31    18  43    5.57   391.1   13.2      42.762
2013    5       31    18  50    5.60   391.5   13.2      42.983
2013    5       31    18  56    5.62   391.9   13.2      43.202
2013    5       31    19   3    5.64   392.4   13.3      43.420
2013    5       31    19  10    5.66   392.8   13.3      43.637
2013    5       31    19  17    5.69   393.3   13.3      43.853
2013    5       31    19  24    5.71   393.7   13.3      44.068
2013    5       31    19  31    5.73   394.2   13.4      44.282
2013    5       31    19  38    5.75   394.6   13.4      44.494
2013    5       31    19  45    5.77   395.1   13.4      44.706
2013    5       31    19  52    5.79   395.6   13.4      44.915
2013    5       31    19  59    5.81   396.0   13.4      45.124
2013    5       31    20   6    5.84   396.5   13.5      45.331
2013    5       31    20  13    5.86   396.9   13.5      45.536
2013    5       31    20  19    5.88   397.4   13.5      45.739
2013    5       31    20  26    5.90   397.9   13.5      45.941
2013    5       31    20  33    5.92   398.3   13.5      46.141
2013    5       31    20  40    5.94   398.8   13.6      46.340
2013    5       31    20  47    5.96   399.2   13.6      46.536
2013    5       31    20  54    5.98   399.7   13.6      46.731
2013    5       31    21   1    6.00   400.1   13.6      46.923
2013    5       31    21   8    6.02   400.5   13.7      47.115
2013    5       31    21  15    6.04   401.0   13.7      47.306
2013    5       31    21  22    6.06   401.4   13.7      47.499
2013    5       31    21  29    6.08   401.9   13.7      47.695
2013    5       31    21  36    6.09   402.3   13.8      47.895
2013    5       31    21  42    6.11   402.8   13.8      48.100
2013    5       31    21  49    6.13   403.3   13.8      48.309
2013    5       31    21  56    6.15   403.7   13.8      48.521
2013    5       31    22   3    6.17   404.2   13.8      48.737
2013    5       31    22  10    6.19   404.7   13.9      48.955
2013    5       31    22  17    6.21   405.2   13.9      49.174
2013    5       31    22  24    6.23   405.6   13.9      49.393
2013    5       31    22  31    6.25   406.1   13.9      49.615
2013    5       31    22  38    6.27   406.6   14.0      49.841
2013    5       31    22  45    6.29   407.1   14.0      50.070
2013    5       31    22  52    6.31   407.5   14.0      50.300
2013    5       31    22  59    6.33   408.0   14.0      50.538
2013    5       31    23   5    6.35   408.5   14.1      50.787
2013    5       31    23  12    6.37   409.0   14.1      51.046
2013    5       31    23  19    6.39   409.6   14.1      51.314
2013    5       31    23  26    6.41   410.2   14.1      51.589
2013    5       31    23  33    6.43   410.8   14.2      51.874
2013    5       31    23  40    6.45   411.5   14.2      52.164
2013    5       31    23  47    6.47   412.2   14.2      52.452
2013    5       31    23  54    6.49   412.8   14.2      52.738
2013    6        1     0   1    6.51   413.5   14.3      53.021
2013    6        1     0   8    6.53   414.2   14.3      53.303
2013    6        1     0  15    6.55   414.9   14.3      53.581
2013    6        1     0  22    6.57   415.6   14.3      53.855
2013    6        1     0  29    6.59   416.2   14.3      54.125
2013    6        1     0  35    6.61   416.9   14.3      54.393
2013    6        1     0  42    6.63   417.6   14.4      54.660
2013    6        1     0  49    6.65   418.3   14.4      54.931
2013    6        1     0  56    6.66   419.0   14.4      55.203
2013    6        1     1   3    6.68   419.6   14.4      55.481
2013    6        1     1  10    6.70   420.3   14.4      55.763
2013    6        1     1  17    6.72   421.0   14.4      56.051
2013    6        1     1  24    6.74   421.7   14.4      56.341
2013    6        1     1  31    6.76   422.3   14.4      56.635
2013    6        1     1  38    6.77   423.0   14.4      56.933
2013    6        1     1  45    6.79   423.8   14.5      57.240
2013    6        1     1  52    6.81   424.5   14.5      57.556
2013    6        1     1  59    6.83   425.2   14.5      57.883
2013    6        1     2   5    6.85   426.0   14.5      58.219
2013    6        1     2  12    6.86   426.8   14.5      58.566
2013    6        1     2  19    6.88   427.6   14.5      58.921
2013    6        1     2  26    6.90   428.4   14.5      59.283
2013    6        1     2  33    6.91   429.2   14.5      59.649
2013    6        1     2  40    6.93   430.0   14.5      60.020
2013    6        1     2  47    6.94   430.8   14.5      60.395
2013    6        1     2  54    6.96   431.6   14.4      60.772
2013    6        1     3   1    6.97   432.4   14.4      61.147
2013    6        1     3   8    6.98   433.3   14.4      61.521
2013    6        1     3  15    7.00   434.1   14.4      61.893
2013    6        1     3  22    7.01   434.9   14.4      62.263
2013    6        1     3  29    7.02   435.8   14.4      62.628
2013    6        1     3  35    7.03   436.6   14.3      62.991
2013    6        1     3  42    7.05   437.4   14.3      63.348
2013    6        1     3  49    7.06   438.2   14.3      63.701
2013    6        1     3  56    7.07   439.1   14.3      64.047
2013    6        1     4   3    7.08   439.9   14.2      64.389
2013    6        1     4  10    7.09   440.7   14.2      64.726
2013    6        1     4  17    7.10   441.6   14.2      65.060
2013    6        1     4  24    7.11   442.4   14.2      65.388
2013    6        1     4  31    7.12   443.2   14.1      65.713
2013    6        1     4  38    7.13   444.1   14.1      66.031
2013    6        1     4  45    7.14   444.9   14.1      66.344
2013    6        1     4  52    7.15   445.7   14.0      66.651
2013    6        1     4  58    7.16   446.6   14.0      66.952
2013    6        1     5   5    7.17   447.5   14.0      67.246
2013    6        1     5  12    7.18   448.3   13.9      67.535
2013    6        1     5  19    7.19   449.2   13.9      67.819
2013    6        1     5  26    7.20   450.1   13.9      68.099
2013    6        1     5  33    7.21   450.9   13.9      68.373
2013    6        1     5  40    7.22   451.8   13.8      68.644
2013    6        1     5  47    7.23   452.7   13.8      68.914
2013    6        1     5  54    7.24   453.5   13.8      69.184
2013    6        1     6   1    7.25   454.4   13.7      69.450
2013    6        1     6   8    7.25   455.2   13.7      69.712
2013    6        1     6  14    7.26   456.0   13.7      69.976
2013    6        1     6  21    7.27   456.8   13.7      70.246
2013    6        1     6  28    7.28   457.6   13.6      70.519
2013    6        1     6  35    7.29   458.5   13.6      70.796
2013    6        1     6  42    7.30   459.4   13.6      71.077
2013    6        1     6  49    7.31   460.3   13.6      71.365
2013    6        1     6  56    7.32   461.3   13.5      71.652
2013    6        1     7   3    7.32   462.3   13.5      71.936
2013    6        1     7  10    7.33   463.2   13.5      72.213
2013    6        1     7  17    7.34   464.2   13.4      72.487
2013    6        1     7  24    7.35   465.3   13.4      72.756
2013    6        1     7  31    7.35   466.3   13.4      73.022
2013    6        1     7  38    7.36   467.3   13.3      73.284
2013    6        1     7  44    7.36   468.4   13.3      73.542
2013    6        1     7  51    7.37   469.4   13.3      73.796
2013    6        1     7  58    7.37   470.4   13.2      74.049
2013    6        1     8   5    7.37   471.5   13.2      74.296
2013    6        1     8  12    7.38   472.5   13.1      74.539
2013    6        1     8  19    7.38   473.5   13.1      74.775
2013    6        1     8  26    7.38   474.5   13.0      75.009
2013    6        1     8  33    7.38   475.4   13.0      75.238
2013    6        1     8  40    7.38   476.4   12.9      75.462
2013    6        1     8  47    7.38   477.3   12.9      75.683
2013    6        1     8  54    7.39   478.3   12.8      75.907
2013    6        1     9   1    7.39   479.2   12.8      76.138
2013    6        1     9   8    7.39   480.2   12.7      76.377
2013    6        1     9  14    7.39   481.2   12.7      76.625
2013    6        1     9  21    7.39   482.3   12.6      76.882
2013    6        1     9  28    7.38   483.3   12.6      77.145
2013    6        1     9  35    7.38   484.3   12.5      77.415
2013    6        1     9  42    7.38   485.4   12.5      77.691
2013    6        1     9  49    7.38   486.4   12.4      77.968
2013    6        1     9  56    7.37   487.4   12.4      78.237
2013    6        1    10   3    7.37   488.5   12.3      78.502
2013    6        1    10  10    7.36   489.5   12.2      78.765
2013    6        1    10  17    7.35   490.5   12.2      79.021
2013    6        1    10  24    7.35   491.5   12.1      79.272
2013    6        1    10  31    7.34   492.5   12.0      79.527
2013    6        1    10  37    7.33   493.5   12.0      79.785
2013    6        1    10  44    7.32   494.6   11.9      80.044
2013    6        1    10  51    7.31   495.6   11.8      80.302
2013    6        1    10  58    7.31   496.6   11.8      80.559
2013    6        1    11   5    7.30   497.7   11.7      80.814
2013    6        1    11  12    7.29   498.7   11.6      81.067
2013    6        1    11  19    7.28   499.8   11.6      81.317
2013    6        1    11  26    7.27   500.8   11.5      81.566
2013    6        1    11  33    7.26   501.9   11.4      81.811
2013    6        1    11  40    7.25   503.0   11.4      82.053
2013    6        1    11  47    7.24   504.0   11.3      82.290
2013    6        1    11  54    7.23   505.1   11.2      82.522
2013    6        1    12   1    7.22   506.2   11.2      82.747
2013    6        1    12   7    7.20   507.3   11.1      82.966
2013    6        1    12  14    7.19   508.4   11.0      83.178
2013    6        1    12  21    7.18   509.6   11.0      83.382
2013    6        1    12  28    7.17   510.7   10.9      83.579
2013    6        1    12  35    7.15   511.8   10.8      83.770
2013    6        1    12  42    7.14   513.0   10.7      83.954
2013    6        1    12  49    7.12   514.1   10.7      84.132
2013    6        1    12  56    7.11   515.3   10.6      84.303
2013    6        1    13   3    7.09   516.5   10.5      84.473
2013    6        1    13  10    7.08   517.6   10.5      84.641
2013    6        1    13  17    7.06   518.8   10.4      84.808
2013    6        1    13  23    7.05   520.0   10.3      84.974
2013    6        1    13  30    7.03   521.1   10.3      85.139
2013    6        1    13  37    7.01   522.3   10.2      85.304
2013    6        1    13  44    7.00   523.5   10.1      85.465
2013    6        1    13  51    6.98   524.7   10.0      85.623
2013    6        1    13  58    6.96   525.9   10.0      85.777
2013    6        1    14   5    6.94   527.1    9.9      85.927
2013    6        1    14  12    6.92   528.3    9.8      86.070
2013    6        1    14  19    6.91   529.5    9.8      86.206
2013    6        1    14  26    6.89   530.7    9.7      86.337
2013    6        1    14  33    6.87   531.9    9.6      86.462
2013    6        1    14  40    6.85   533.1    9.5      86.582
2013    6        1    14  46    6.83   534.4    9.5      86.695
2013    6        1    14  53    6.81   535.6    9.4      86.806
2013    6        1    15   0    6.79   536.9    9.3      86.913
2013    6        1    15   7    6.77   538.2    9.2      87.018
2013    6        1    15  14    6.74   539.4    9.2      87.122
2013    6        1    15  21    6.72   540.7    9.1      87.221
2013    6        1    15  28    6.70   542.0    9.0      87.313
2013    6        1    15  35    6.68   543.3    8.9      87.398
2013    6        1    15  42    6.66   544.5    8.9      87.477
2013    6        1    15  49    6.63   545.8    8.8      87.549
2013    6        1    15  56    6.61   547.0    8.7      87.614
2013    6        1    16   3    6.59   548.2    8.6      87.672
2013    6        1    16  10    6.57   549.4    8.6      87.727
2013    6        1    16  17    6.54   550.6    8.5      87.779
2013    6        1    16  23    6.52   551.9    8.4      87.828
2013    6        1    16  30    6.50   553.1    8.4      87.874
2013    6        1    16  37    6.48   554.3    8.3      87.915
2013    6        1    16  44    6.45   555.5    8.2      87.948
2013    6        1    16  51    6.43   556.8    8.2      87.973
2013    6        1    16  58    6.40   558.1    8.1      87.995
2013    6        1    17   5    6.38   559.3    8.0      88.004
2013    6        1    17  12    6.36   560.5    7.9      87.991
2013    6        1    17  19    6.33   561.7    7.9      87.960
2013    6        1    17  26    6.30   562.9    7.8      87.915
2013    6        1    17  33    6.28   564.1    7.7      87.854
2013    6        1    17  40    6.25   565.2    7.7      87.782
2013    6        1    17  46    6.23   566.4    7.6      87.712
2013    6        1    17  53    6.20   567.5    7.5      87.643
2013    6        1    18   0    6.18   568.7    7.5      87.574
2013    6        1    18   7    6.15   569.8    7.4      87.502
2013    6        1    18  14    6.13   571.0    7.3      87.428
2013    6        1    18  21    6.10   572.2    7.3      87.354
2013    6        1    18  28    6.07   573.3    7.2      87.279
2013    6        1    18  35    6.05   574.5    7.1      87.203
2013    6        1    18  42    6.02   575.7    7.1      87.125
2013    6        1    18  49    6.00   576.8    7.0      87.044
2013    6        1    18  56    5.97   578.0    6.9      86.962
2013    6        1    19   3    5.94   579.2    6.9      86.876
2013    6        1    19   9    5.92   580.4    6.8      86.788
2013    6        1    19  16    5.89   581.5    6.8      86.696
2013    6        1    19  23    5.86   582.7    6.7      86.600
2013    6        1    19  30    5.84   583.9    6.6      86.501
2013    6        1    19  37    5.81   585.1    6.6      86.396
2013    6        1    19  44    5.78   586.3    6.5      86.287
2013    6        1    19  51    5.76   587.5    6.5      86.170
2013    6        1    19  58    5.73   588.6    6.4      86.047
2013    6        1    20   5    5.70   589.8    6.3      85.915
2013    6        1    20  12    5.67   590.9    6.3      85.776
2013    6        1    20  19    5.64   592.0    6.2      85.633
2013    6        1    20  26    5.62   593.2    6.2      85.485
2013    6        1    20  32    5.59   594.3    6.1      85.336
2013    6        1    20  39    5.56   595.4    6.1      85.185
2013    6        1    20  46    5.53   596.5    6.0      85.034
2013    6        1    20  53    5.51   597.6    5.9      84.881
2013    6        1    21   0    5.48   598.7    5.9      84.730
2013    6        1    21   7    5.45   599.8    5.8      84.574
2013    6        1    21  14    5.42   600.9    5.8      84.417
2013    6        1    21  21    5.40   601.9    5.7      84.256
2013    6        1    21  28    5.37   603.0    5.7      84.092
2013    6        1    21  35    5.34   604.0    5.6      83.923
2013    6        1    21  42    5.31   605.1    5.6      83.752
2013    6        1    21  49    5.29   606.1    5.6      83.577
2013    6        1    21  55    5.26   607.1    5.5      83.396
2013    6        1    22   2    5.23   608.1    5.5      83.210
2013    6        1    22   9    5.20   609.1    5.4      83.019
2013    6        1    22  16    5.18   610.0    5.4      82.822
2013    6        1    22  23    5.15   610.9    5.3      82.623
2013    6        1    22  30    5.12   611.9    5.3      82.419
2013    6        1    22  37    5.10   612.7    5.2      82.215
2013    6        1    22  44    5.07   613.6    5.2      82.007
2013    6        1    22  51    5.04   614.4    5.2      81.800
2013    6        1    22  58    5.02   615.3    5.1      81.593
2013    6        1    23   5    4.99   616.0    5.1      81.388
2013    6        1    23  12    4.97   616.8    5.0      81.184
2013    6        1    23  19    4.94   617.6    5.0      80.983
2013    6        1    23  25    4.92   618.3    5.0      80.782
2013    6        1    23  32    4.89   619.0    4.9      80.584
2013    6        1    23  39    4.87   619.7    4.9      80.387
2013    6        1    23  46    4.85   620.4    4.9      80.192
2013    6        1    23  53    4.82   621.0    4.8      79.996
2013    6        2     0   0    4.80   621.7    4.8      79.802
2013    6        2     0   7    4.78   622.3    4.8      79.607
2013    6        2     0  14    4.76   622.9    4.7      79.412
2013    6        2     0  21    4.73   623.4    4.7      79.219
2013    6        2     0  28    4.71   624.0    4.7      79.025
2013    6        2     0  35    4.69   624.5    4.7      78.832
2013    6        2     0  42    4.67   625.1    4.6      78.640
2013    6        2     0  49    4.65   625.6    4.6      78.448
2013    6        2     0  55    4.63   626.1    4.6      78.257
2013    6        2     1   2    4.61   626.7    4.6      78.066
2013    6        2     1   9    4.59   627.2    4.5      77.874
2013    6        2     1  16    4.57   627.7    4.5      77.682
2013    6        2     1  23    4.55   628.2    4.5      77.487
2013    6        2     1  30    4.53   628.7    4.5      77.294
2013    6        2     1  37    4.51   629.2    4.4      77.101
2013    6        2     1  44    4.49   629.6    4.4      76.913
2013    6        2     1  51    4.47   630.1    4.4      76.730
2013    6        2     1  58    4.45   630.6    4.4      76.553
2013    6        2     2   5    4.43   631.0    4.3      76.384
2013    6        2     2  12    4.41   631.5    4.3      76.221
2013    6        2     2  18    4.39   631.9    4.3      76.063
2013    6        2     2  25    4.38   632.3    4.3      75.910
2013    6        2     2  32    4.36   632.8    4.3      75.763
2013    6        2     2  39    4.34   633.2    4.2      75.619
2013    6        2     2  46    4.33   633.7    4.2      75.479
2013    6        2     2  53    4.31   634.2    4.2      75.344
2013    6        2     3   0    4.29   634.7    4.2      75.210
2013    6        2     3   7    4.28   635.1    4.2      75.076
2013    6        2     3  14    4.26   635.6    4.1      74.941
2013    6        2     3  21    4.24   636.0    4.1      74.805
2013    6        2     3  28    4.23   636.5    4.1      74.669
2013    6        2     3  35    4.21   636.9    4.1      74.534
2013    6        2     3  41    4.20   637.3    4.1      74.401
2013    6        2     3  48    4.18   637.8    4.1      74.270
2013    6        2     3  55    4.17   638.2    4.0      74.140
2013    6        2     4   2    4.15   638.6    4.0      74.013
2013    6        2     4   9    4.14   639.0    4.0      73.886
2013    6        2     4  16    4.12   639.4    4.0      73.762
2013    6        2     4  23    4.11   639.8    4.0      73.640
2013    6        2     4  30    4.09   640.2    4.0      73.520
2013    6        2     4  37    4.08   640.6    3.9      73.403
2013    6        2     4  44    4.07   641.0    3.9      73.287
2013    6        2     4  51    4.05   641.4    3.9      73.175
2013    6        2     4  58    4.04   641.8    3.9      73.066
2013    6        2     5   4    4.02   642.2    3.9      72.959
2013    6        2     5  11    4.01   642.7    3.9      72.852
2013    6        2     5  18    4.00   643.2    3.8      72.742
2013    6        2     5  25    3.99   643.6    3.8      72.627
2013    6        2     5  32    3.97   644.1    3.8      72.508
2013    6        2     5  39    3.96   644.5    3.8      72.384
2013    6        2     5  46    3.95   644.9    3.8      72.259
2013    6        2     5  53    3.93   645.3    3.8      72.132
2013    6        2     6   0    3.92   645.6    3.8      72.006
2013    6        2     6   7    3.91   646.0    3.7      71.881
2013    6        2     6  14    3.90   646.3    3.7      71.760
2013    6        2     6  21    3.89   646.7    3.7      71.641
2013    6        2     6  28    3.87   647.0    3.7      71.526
2013    6        2     6  34    3.86   647.3    3.7      71.415
2013    6        2     6  41    3.85   647.7    3.7      71.309
2013    6        2     6  48    3.84   648.0    3.7      71.205
2013    6        2     6  55    3.83   648.3    3.6      71.104
2013    6        2     7   2    3.82   648.7    3.6      71.003
2013    6        2     7   9    3.81   649.0    3.6      70.903
2013    6        2     7  16    3.80   649.3    3.6      70.802
2013    6        2     7  23    3.79   649.6    3.6      70.702
2013    6        2     7  30    3.78   649.9    3.6      70.602
2013    6        2     7  37    3.77   650.2    3.6      70.503
2013    6        2     7  44    3.76   650.5    3.6      70.403
2013    6        2     7  51    3.75   650.8    3.5      70.303
2013    6        2     7  58    3.74   651.1    3.5      70.202
2013    6        2     8   4    3.73   651.4    3.5      70.102
2013    6        2     8  11    3.72   651.7    3.5      70.003
2013    6        2     8  18    3.71   652.0    3.5      69.904
2013    6        2     8  25    3.70   652.3    3.5      69.804
2013    6        2     8  32    3.69   652.6    3.5      69.703
2013    6        2     8  39    3.68   652.9    3.5      69.603
2013    6        2     8  46    3.67   653.2    3.5      69.505
2013    6        2     8  53    3.66   653.4    3.4      69.408
2013    6        2     9   0    3.65   653.7    3.4      69.315
2013    6        2     9   7    3.64   653.9    3.4      69.224
2013    6        2     9  14    3.63   654.1    3.4      69.135
2013    6        2     9  21    3.63   654.3    3.4      69.050
2013    6        2     9  27    3.62   654.5    3.4      68.967
2013    6        2     9  34    3.61   654.7    3.4      68.885
2013    6        2     9  41    3.60   654.9    3.4      68.805
2013    6        2     9  48    3.59   655.1    3.4      68.728
2013    6        2     9  55    3.58   655.4    3.4      68.655
2013    6        2    10   2    3.58   655.6    3.3      68.584
2013    6        2    10   9    3.57   655.9    3.3      68.516
2013    6        2    10  16    3.56   656.1    3.3      68.447
2013    6        2    10  23    3.55   656.4    3.3      68.378
2013    6        2    10  30    3.55   656.6    3.3      68.304
2013    6        2    10  37    3.54   656.8    3.3      68.229
2013    6        2    10  44    3.53   657.1    3.3      68.153
2013    6        2    10  50    3.52   657.3    3.3      68.077
2013    6        2    10  57    3.51   657.5    3.3      68.002
2013    6        2    11   4    3.51   657.7    3.3      67.928
2013    6        2    11  11    3.50   657.9    3.3      67.853
2013    6        2    11  18    3.49   658.1    3.3      67.778
2013    6        2    11  25    3.48   658.3    3.2      67.704
2013    6        2    11  32    3.48   658.4    3.2      67.630
2013    6        2    11  39    3.47   658.6    3.2      67.555
2013    6        2    11  46    3.46   658.8    3.2      67.483
2013    6        2    11  53    3.46   659.0    3.2      67.411
2013    6        2    12   0    3.45   659.2    3.2      67.341
2013    6        2    12   6    3.44   659.4    3.2      67.272
2013    6        2    12  13    3.44   659.6    3.2      67.205
2013    6        2    12  20    3.43   659.8    3.2      67.140
2013    6        2    12  27    3.42   660.0    3.2      67.075
2013    6        2    12  34    3.42   660.2    3.2      67.007
2013    6        2    12  41    3.41   660.4    3.2      66.938
2013    6        2    12  48    3.40   660.6    3.2      66.866
2013    6        2    12  55    3.40   660.8    3.1      66.793
2013    6        2    13   2    3.39   661.0    3.1      66.720
2013    6        2    13   9    3.38   661.1    3.1      66.647
2013    6        2    13  16    3.38   661.3    3.1      66.573
2013    6        2    13  23    3.37   661.4    3.1      66.501
2013    6        2    13  30    3.36   661.5    3.1      66.430
2013    6        2    13  36    3.36   661.7    3.1      66.361
2013    6        2    13  43    3.35   661.8    3.1      66.295
2013    6        2    13  50    3.35   662.0    3.1      66.233
2013    6        2    13  57    3.34   662.1    3.1      66.174
2013    6        2    14   4    3.33   662.3    3.1      66.118
2013    6        2    14  11    3.33   662.4    3.1      66.061
2013    6        2    14  18    3.32   662.6    3.1      66.005
2013    6        2    14  25    3.32   662.7    3.1      65.948
2013    6        2    14  32    3.31   662.8    3.1      65.891
2013    6        2    14  39    3.31   663.0    3.1      65.833
2013    6        2    14  46    3.30   663.1    3.0      65.776
2013    6        2    14  53    3.30   663.2    3.0      65.718
2013    6        2    15   0    3.29   663.4    3.0      65.659
2013    6        2    15   6    3.29   663.5    3.0      65.600
2013    6        2    15  13    3.28   663.6    3.0      65.541
2013    6        2    15  20    3.27   663.7    3.0      65.482
2013    6        2    15  27    3.27   663.8    3.0      65.424
2013    6        2    15  34    3.26   664.0    3.0      65.366
2013    6        2    15  41    3.26   664.1    3.0      65.309
2013    6        2    15  48    3.25   664.2    3.0      65.253
2013    6        2    15  55    3.25   664.3    3.0      65.198
2013    6        2    16   2    3.25   664.4    3.0      65.143
2013    6        2    16   9    3.24   664.5    3.0      65.090
2013    6        2    16  16    3.24   664.6    3.0      65.038
2013    6        2    16  23    3.23   664.7    3.0      64.986
2013    6        2    16  29    3.23   664.8    3.0      64.936
2013    6        2    16  36    3.22   664.9    3.0      64.887
2013    6        2    16  43    3.22   665.0    3.0      64.838
2013    6        2    16  50    3.21   665.1    3.0      64.791
2013    6        2    16  57    3.21   665.2    3.0      64.745
2013    6        2    17   4    3.20   665.2    2.9      64.701
2013    6        2    17  11    3.20   665.3    2.9      64.657
2013    6        2    17  18    3.20   665.4    2.9      64.614
2013    6        2    17  25    3.19   665.5    2.9      64.572
2013    6        2    17  32    3.19   665.6    2.9      64.530
2013    6        2    17  39    3.18   665.6    2.9      64.488
2013    6        2    17  46    3.18   665.7    2.9      64.446
2013    6        2    17  52    3.17   665.8    2.9      64.404
2013    6        2    17  59    3.17   665.9    2.9      64.361
2013    6        2    18   6    3.17   665.9    2.9      64.318
2013    6        2    18  13    3.16   666.0    2.9      64.275
2013    6        2    18  20    3.16   666.1    2.9      64.231
2013    6        2    18  27    3.15   666.1    2.9      64.187
2013    6        2    18  34    3.15   666.2    2.9      64.142
2013    6        2    18  41    3.14   666.3    2.9      64.096
2013    6        2    18  48    3.14   666.3    2.9      64.050
2013    6        2    18  55    3.14   666.4    2.9      64.004
2013    6        2    19   2    3.13   666.5    2.9      63.956
2013    6        2    19   9    3.13   666.5    2.9      63.909
2013    6        2    19  15    3.12   666.6    2.9      63.861
2013    6        2    19  22    3.12   666.6    2.9      63.812
2013    6        2    19  29    3.12   666.7    2.9      63.764
2013    6        2    19  36    3.11   666.7    2.9      63.715
2013    6        2    19  43    3.11   666.8    2.9      63.666
2013    6        2    19  50    3.10   666.8    2.9      63.617
2013    6        2    19  57    3.10   666.9    2.9      63.568
2013    6        2    20   4    3.10   666.9    2.9      63.519
2013    6        2    20  11    3.09   667.0    2.9      63.470
2013    6        2    20  18    3.09   667.0    2.8      63.422
2013    6        2    20  25    3.08   667.1    2.8      63.374
2013    6        2    20  32    3.08   667.1    2.8      63.326
2013    6        2    20  38    3.08   667.1    2.8      63.278
2013    6        2    20  45    3.07   667.2    2.8      63.230
2013    6        2    20  52    3.07   667.2    2.8      63.183
2013    6        2    20  59    3.07   667.2    2.8      63.137
2013    6        2    21   6    3.06   667.3    2.8      63.090
2013    6        2    21  13    3.06   667.3    2.8      63.045
2013    6        2    21  20    3.06   667.3    2.8      62.999
2013    6        2    21  27    3.05   667.4    2.8      62.954
2013    6        2    21  34    3.05   667.4    2.8      62.909
2013    6        2    21  41    3.05   667.4    2.8      62.865
2013    6        2    21  48    3.04   667.4    2.8      62.820
2013    6        2    21  55    3.04   667.5    2.8      62.777
2013    6        2    22   2    3.04   667.5    2.8      62.733
2013    6        2    22   8    3.03   667.5    2.8      62.690
2013    6        2    22  15    3.03   667.5    2.8      62.647
2013    6        2    22  22    3.03   667.5    2.8      62.605
2013    6        2    22  29    3.02   667.6    2.8      62.562
2013    6        2    22  36    3.02   667.6    2.8      62.521
2013    6        2    22  43    3.02   667.6    2.8      62.480
2013    6        2    22  50    3.01   667.6    2.8      62.440
2013    6        2    22  57    3.01   667.6    2.8      62.400
2013    6        2    23   4    3.01   667.6    2.8      62.361
2013    6        2    23  11    3.01   667.6    2.8      62.322
2013    6        2    23  18    3.00   667.6    2.8      62.284
2013    6        2    23  25    3.00   667.6    2.8      62.247
2013    6        2    23  32    3.00   667.7    2.8      62.211
2013    6        2    23  38    2.99   667.7    2.8      62.175
2013    6        2    23  45    2.99   667.7    2.8      62.141
2013    6        2    23  52    2.99   667.7    2.8      62.106
2013    6        2    23  59    2.99   667.7    2.8      62.073
2013    6        3     0   6    2.98   667.7    2.8      62.040
2013    6        3     0  13    2.98   667.7    2.8      62.007
2013    6        3     0  20    2.98   667.7    2.8      61.975
2013    6        3     0  27    2.98   667.7    2.8      61.943
2013    6        3     0  34    2.97   667.7    2.7      61.912
2013    6        3     0  41    2.97   667.7    2.7      61.880
2013    6        3     0  48    2.97   667.7    2.7      61.849
2013    6        3     0  54    2.96   667.7    2.7      61.818
2013    6        3     1   1    2.96   667.7    2.7      61.786
2013    6        3     1   8    2.96   667.7    2.7      61.755
2013    6        3     1  15    2.96   667.7    2.7      61.723
2013    6        3     1  22    2.95   667.7    2.7      61.691
2013    6        3     1  29    2.95   667.7    2.7      61.658
2013    6        3     1  36    2.95   667.7    2.7      61.626
2013    6        3     1  43    2.95   667.6    2.7      61.593
2013    6        3     1  50    2.94   667.6    2.7      61.559
2013    6        3     1  57    2.94   667.6    2.7      61.525
2013    6        3     2   4    2.94   667.6    2.7      61.491
2013    6        3     2  11    2.94   667.6    2.7      61.456
2013    6        3     2  17    2.93   667.6    2.7      61.421
2013    6        3     2  24    2.93   667.6    2.7      61.386
2013    6        3     2  31    2.93   667.6    2.7      61.350
2013    6        3     2  38    2.93   667.5    2.7      61.315
2013    6        3     2  45    2.92   667.5    2.7      61.278
2013    6        3     2  52    2.92   667.5    2.7      61.242
2013    6        3     2  59    2.92   667.5    2.7      61.206
2013    6        3     3   6    2.91   667.5    2.7      61.169
2013    6        3     3  13    2.91   667.4    2.7      61.132
2013    6        3     3  20    2.91   667.4    2.7      61.095
2013    6        3     3  27    2.91   667.4    2.7      61.058
2013    6        3     3  34    2.90   667.3    2.7      61.020
2013    6        3     3  40    2.90   667.3    2.7      60.983
2013    6        3     3  47    2.90   667.3    2.7      60.946
2013    6        3     3  54    2.90   667.3    2.7      60.908
2013    6        3     4   1    2.90   667.2    2.7      60.871
2013    6        3     4   8    2.89   667.2    2.7      60.834
2013    6        3     4  15    2.89   667.2    2.7      60.797
2013    6        3     4  22    2.89   667.1    2.7      60.760
2013    6        3     4  29    2.89   667.1    2.7      60.723
2013    6        3     4  36    2.88   667.1    2.7      60.686
2013    6        3     4  43    2.88   667.0    2.7      60.650
2013    6        3     4  50    2.88   667.0    2.7      60.613
2013    6        3     4  57    2.88   666.9    2.7      60.577
2013    6        3     5   4    2.87   666.9    2.7      60.542
2013    6        3     5  10    2.87   666.9    2.7      60.506
2013    6        3     5  17    2.87   666.8    2.7      60.471
2013    6        3     5  24    2.87   666.8    2.7      60.436
2013    6        3     5  31    2.87   666.7    2.7      60.402
2013    6        3     5  38    2.86   666.7    2.7      60.367
2013    6        3     5  45    2.86   666.7    2.7      60.334
2013    6        3     5  52    2.86   666.6    2.7      60.300
2013    6        3     5  59    2.86   666.6    2.7      60.267
2013    6        3     6   6    2.86   666.5    2.7      60.234
2013    6        3     6  13    2.85   666.5    2.7      60.202
2013    6        3     6  20    2.85   666.4    2.7      60.170
2013    6        3     6  27    2.85   666.4    2.7      60.139
2013    6        3     6  34    2.85   666.4    2.7      60.108
2013    6        3     6  40    2.85   666.3    2.7      60.077
2013    6        3     6  47    2.84   666.3    2.7      60.047
2013    6        3     6  54    2.84   666.2    2.7      60.017
2013    6        3     7   1    2.84   666.2    2.7      59.987
2013    6        3     7   8    2.84   666.1    2.7      59.958
2013    6        3     7  15    2.84   666.1    2.7      59.929
2013    6        3     7  22    2.83   666.0    2.7      59.901
2013    6        3     7  29    2.83   666.0    2.7      59.873
2013    6        3     7  36    2.83   665.9    2.7      59.845
2013    6        3     7  43    2.83   665.9    2.7      59.817
2013    6        3     7  50    2.83   665.8    2.7      59.789
2013    6        3     7  57    2.83   665.8    2.7      59.761
2013    6        3     8   3    2.82   665.7    2.7      59.734
2013    6        3     8  10    2.82   665.7    2.7      59.706
2013    6        3     8  17    2.82   665.6    2.7      59.679
2013    6        3     8  24    2.82   665.6    2.7      59.651
2013    6        3     8  31    2.82   665.5    2.6      59.623
2013    6        3     8  38    2.81   665.5    2.6      59.595
2013    6        3     8  45    2.81   665.4    2.6      59.567
2013    6        3     8  52    2.81   665.4    2.6      59.539
2013    6        3     8  59    2.81   665.3    2.6      59.510
2013    6        3     9   6    2.81   665.2    2.6      59.481
2013    6        3     9  13    2.81   665.2    2.6      59.453
2013    6        3     9  19    2.80   665.1    2.6      59.423
2013    6        3     9  26    2.80   665.1    2.6      59.394
2013    6        3     9  33    2.80   665.0    2.6      59.364
2013    6        3     9  40    2.80   664.9    2.6      59.334
2013    6        3     9  47    2.80   664.9    2.6      59.304
2013    6        3     9  54    2.79   664.8    2.6      59.274
2013    6        3    10   1    2.79   664.7    2.6      59.243
2013    6        3    10   8    2.79   664.7    2.6      59.213
2013    6        3    10  15    2.79   664.6    2.6      59.182
2013    6        3    10  22    2.79   664.5    2.6      59.152
2013    6        3    10  29    2.78   664.5    2.6      59.121
2013    6        3    10  36    2.78   664.4    2.6      59.091
2013    6        3    10  43    2.78   664.3    2.6      59.060
2013    6        3    10  49    2.78   664.2    2.6      59.030
2013    6        3    10  56    2.78   664.2    2.6      58.999
2013    6        3    11   3    2.78   664.1    2.6      58.969
2013    6        3    11  10    2.77   664.0    2.6      58.938
2013    6        3    11  17    2.77   663.9    2.6      58.908
2013    6        3    11  24    2.77   663.9    2.6      58.878
2013    6        3    11  31    2.77   663.8    2.6      58.848
2013    6        3    11  38    2.77   663.7    2.6      58.818
2013    6        3    11  45    2.76   663.6    2.6      58.788
2013    6        3    11  52    2.76   663.5    2.6      58.759
2013    6        3    11  59    2.76   663.5    2.6      58.729
2013    6        3    12   6    2.76   663.4    2.6      58.700
2013    6        3    12  13    2.76   663.3    2.6      58.671
2013    6        3    12  19    2.76   663.2    2.6      58.642
2013    6        3    12  26    2.75   663.1    2.6      58.614
2013    6        3    12  33    2.75   663.0    2.6      58.585
2013    6        3    12  40    2.75   663.0    2.6      58.557
2013    6        3    12  47    2.75   662.9    2.6      58.529
2013    6        3    12  54    2.75   662.8    2.6      58.500
2013    6        3    13   1    2.75   662.7    2.6      58.472
2013    6        3    13   8    2.75   662.6    2.6      58.444
2013    6        3    13  15    2.74   662.5    2.6      58.416
2013    6        3    13  22    2.74   662.4    2.6      58.388
2013    6        3    13  29    2.74   662.4    2.6      58.359
2013    6        3    13  36    2.74   662.3    2.6      58.331
2013    6        3    13  42    2.74   662.2    2.6      58.303
2013    6        3    13  49    2.74   662.1    2.6      58.274
2013    6        3    13  56    2.73   662.0    2.6      58.245
2013    6        3    14   3    2.73   661.9    2.6      58.217
2013    6        3    14  10    2.73   661.8    2.6      58.188
2013    6        3    14  17    2.73   661.8    2.6      58.159
2013    6        3    14  24    2.73   661.7    2.6      58.130
2013    6        3    14  31    2.73   661.6    2.6      58.101
2013    6        3    14  38    2.73   661.5    2.6      58.071
2013    6        3    14  45    2.72   661.4    2.6      58.042
2013    6        3    14  52    2.72   661.3    2.6      58.012
2013    6        3    14  59    2.72   661.2    2.6      57.982
2013    6        3    15   5    2.72   661.1    2.6      57.952
2013    6        3    15  12    2.72   661.0    2.6      57.922
2013    6        3    15  19    2.72   661.0    2.6      57.892
2013    6        3    15  26    2.71   660.9    2.6      57.862
2013    6        3    15  33    2.71   660.8    2.6      57.831
2013    6        3    15  40    2.71   660.7    2.6      57.800
2013    6        3    15  47    2.71   660.6    2.6      57.769
2013    6        3    15  54    2.71   660.5    2.6      57.738
2013    6        3    16   1    2.71   660.4    2.6      57.707
2013    6        3    16   8    2.71   660.3    2.6      57.676
2013    6        3    16  15    2.70   660.2    2.6      57.644
2013    6        3    16  21    2.70   660.1    2.6      57.612
2013    6        3    16  28    2.70   660.0    2.6      57.580
2013    6        3    16  35    2.70   659.9    2.6      57.549
2013    6        3    16  42    2.70   659.8    2.6      57.516
2013    6        3    16  49    2.70   659.7    2.6      57.484
2013    6        3    16  56    2.69   659.6    2.6      57.452
2013    6        3    17   3    2.69   659.5    2.6      57.419
2013    6        3    17  10    2.69   659.4    2.6      57.387
2013    6        3    17  17    2.69   659.3    2.6      57.354
2013    6        3    17  24    2.69   659.2    2.6      57.321
2013    6        3    17  31    2.69   659.1    2.6      57.288
2013    6        3    17  38    2.68   659.0    2.6      57.255
2013    6        3    17  44    2.68   658.9    2.6      57.223
2013    6        3    17  51    2.68   658.8    2.6      57.190
2013    6        3    17  58    2.68   658.7    2.6      57.157
2013    6        3    18   5    2.68   658.6    2.6      57.124
2013    6        3    18  12    2.68   658.5    2.6      57.092
2013    6        3    18  19    2.68   658.4    2.6      57.059
2013    6        3    18  26    2.67   658.3    2.6      57.027
2013    6        3    18  33    2.67   658.2    2.6      56.995
2013    6        3    18  40    2.67   658.1    2.6      56.963
2013    6        3    18  47    2.67   657.9    2.6      56.932
2013    6        3    18  54    2.67   657.8    2.6      56.901
2013    6        3    19   1    2.67   657.7    2.6      56.871
2013    6        3    19   8    2.66   657.6    2.6      56.840
2013    6        3    19  15    2.66   657.5    2.6      56.811
2013    6        3    19  21    2.66   657.4    2.6      56.782
2013    6        3    19  28    2.66   657.2    2.6      56.753
2013    6        3    19  35    2.66   657.1    2.6      56.725
2013    6        3    19  42    2.66   657.0    2.6      56.697
2013    6        3    19  49    2.66   656.9    2.6      56.669
2013    6        3    19  56    2.65   656.8    2.6      56.642
2013    6        3    20   3    2.65   656.6    2.6      56.616
2013    6        3    20  10    2.65   656.5    2.6      56.589
2013    6        3    20  17    2.65   656.4    2.6      56.563
2013    6        3    20  24    2.65   656.3    2.6      56.537
2013    6        3    20  31    2.65   656.1    2.6      56.511
2013    6        3    20  38    2.65   656.0    2.6      56.484
2013    6        3    20  44    2.64   655.9    2.6      56.458
2013    6        3    20  51    2.64   655.8    2.6      56.432
2013    6        3    20  58    2.64   655.7    2.6      56.405
2013    6        3    21   5    2.64   655.5    2.6      56.378
2013    6        3    21  12    2.64   655.4    2.6      56.350
2013    6        3    21  19    2.64   655.3    2.6      56.322
2013    6        3    21  26    2.64   655.2    2.6      56.294
2013    6        3    21  33    2.64   655.0    2.6      56.266
2013    6        3    21  40    2.63   654.9    2.6      56.236
2013    6        3    21  47    2.63   654.8    2.6      56.207
2013    6        3    21  54    2.63   654.7    2.6      56.177
2013    6        3    22   1    2.63   654.6    2.6      56.146
2013    6        3    22   7    2.63   654.4    2.6      56.115
2013    6        3    22  14    2.63   654.3    2.6      56.083
2013    6        3    22  21    2.63   654.2    2.6      56.051
2013    6        3    22  28    2.62   654.1    2.6      56.019
2013    6        3    22  35    2.62   653.9    2.6      55.986
2013    6        3    22  42    2.62   653.8    2.6      55.952
2013    6        3    22  49    2.62   653.7    2.6      55.918
2013    6        3    22  56    2.62   653.6    2.6      55.884
2013    6        3    23   3    2.62   653.4    2.6      55.849
2013    6        3    23  10    2.61   653.3    2.6      55.814
2013    6        3    23  17    2.61   653.2    2.6      55.778
2013    6        3    23  24    2.61   653.1    2.6      55.742
2013    6        3    23  30    2.61   652.9    2.6      55.706
2013    6        3    23  37    2.61   652.8    2.6      55.669
2013    6        3    23  44    2.61   652.7    2.6      55.633
2013    6        3    23  51    2.61   652.5    2.6      55.596
2013    6        3    23  58    2.60   652.4    2.6      55.558
2013    6        4     0   5    2.60   652.3    2.6      55.521
2013    6        4     0  12    2.60   652.2    2.6      55.483
2013    6        4     0  19    2.60   652.0    2.6      55.445
2013    6        4     0  26    2.60   651.9    2.6      55.407
2013    6        4     0  33    2.60   651.8    2.6      55.368
2013    6        4     0  40    2.60   651.6    2.6      55.330
2013    6        4     0  47    2.59   651.5    2.6      55.291
2013    6        4     0  53    2.59   651.4    2.6      55.252
2013    6        4     1   0    2.59   651.2    2.6      55.212
2013    6        4     1   7    2.59   651.1    2.6      55.173
2013    6        4     1  14    2.59   651.0    2.6      55.134
2013    6        4     1  21    2.59   650.8    2.6      55.094
2013    6        4     1  28    2.58   650.7    2.6      55.054
2013    6        4     1  35    2.58   650.5    2.6      55.015
2013    6        4     1  42    2.58   650.4    2.6      54.975
2013    6        4     1  49    2.58   650.2    2.6      54.936
2013    6        4     1  56    2.58   650.1    2.6      54.896
2013    6        4     2   3    2.58   650.0    2.6      54.857
2013    6        4     2  10    2.58   649.8    2.6      54.819
2013    6        4     2  16    2.57   649.7    2.6      54.781
2013    6        4     2  23    2.57   649.5    2.6      54.743
2013    6        4     2  30    2.57   649.3    2.6      54.706
2013    6        4     2  37    2.57   649.2    2.6      54.670
2013    6        4     2  44    2.57   649.0    2.6      54.634
2013    6        4     2  51    2.57   648.9    2.6      54.599
2013    6        4     2  58    2.57   648.7    2.6      54.564
2013    6        4     3   5    2.56   648.6    2.6      54.531
2013    6        4     3  12    2.56   648.4    2.6      54.498
2013    6        4     3  19    2.56   648.3    2.6      54.465
2013    6        4     3  26    2.56   648.1    2.6      54.433
2013    6        4     3  33    2.56   648.0    2.6      54.402
2013    6        4     3  40    2.56   647.8    2.6      54.371
2013    6        4     3  46    2.56   647.6    2.6      54.341
2013    6        4     3  53    2.55   647.5    2.6      54.310
2013    6        4     4   0    2.55   647.3    2.6      54.280
2013    6        4     4   7    2.55   647.2    2.6      54.250
2013    6        4     4  14    2.55   647.0    2.6      54.220
2013    6        4     4  21    2.55   646.8    2.6      54.190
2013    6        4     4  28    2.55   646.7    2.6      54.159
2013    6        4     4  35    2.55   646.5    2.6      54.129
2013    6        4     4  42    2.55   646.4    2.6      54.098
2013    6        4     4  49    2.54   646.2    2.6      54.067
2013    6        4     4  56    2.54   646.0    2.6      54.036
2013    6        4     5   3    2.54   645.9    2.6      54.004
2013    6        4     5   9    2.54   645.7    2.6      53.972
2013    6        4     5  16    2.54   645.6    2.6      53.940
2013    6        4     5  23    2.54   645.4    2.6      53.907
2013    6        4     5  30    2.54   645.2    2.6      53.873
2013    6        4     5  37    2.54   645.1    2.6      53.839
2013    6        4     5  44    2.53   644.9    2.6      53.805
2013    6        4     5  51    2.53   644.8    2.6      53.770
2013    6        4     5  58    2.53   644.6    2.6      53.735
2013    6        4     6   5    2.53   644.4    2.6      53.699
2013    6        4     6  12    2.53   644.3    2.6      53.663
2013    6        4     6  19    2.53   644.1    2.6      53.626
2013    6        4     6  26    2.53   643.9    2.6      53.589
2013    6        4     6  32    2.53   643.8    2.6      53.551
2013    6        4     6  39    2.52   643.6    2.6      53.513
2013    6        4     6  46    2.52   643.4    2.6      53.474
2013    6        4     6  53    2.52   643.3    2.6      53.435
2013    6        4     7   0    2.52   643.1    2.6      53.396
2013    6        4     7   7    2.52   642.9    2.6      53.357
2013    6        4     7  14    2.52   642.7    2.6      53.317
2013    6        4     7  21    2.52   642.6    2.6      53.277
2013    6        4     7  28    2.51   642.4    2.6      53.237
2013    6        4     7  35    2.51   642.2    2.6      53.197
2013    6        4     7  42    2.51   642.1    2.6      53.157
2013    6        4     7  48    2.51   641.9    2.6      53.116
2013    6        4     7  55    2.51   641.7    2.6      53.076
2013    6        4     8   2    2.51   641.5    2.6      53.035
2013    6        4     8   9    2.51   641.3    2.6      52.995
2013    6        4     8  16    2.50   641.2    2.6      52.954
2013    6        4     8  23    2.50   641.0    2.6      52.914
2013    6        4     8  30    2.50   640.8    2.6      52.873
2013    6        4     8  37    2.50   640.6    2.6      52.833
2013    6        4     8  44    2.50   640.4    2.6      52.792
2013    6        4     8  51    2.50   640.2    2.6      52.752
2013    6        4     8  58    2.50   640.1    2.6      52.711
2013    6        4     9   5    2.50   639.9    2.6      52.671
2013    6        4     9  12    2.49   639.7    2.6      52.630
2013    6        4     9  18    2.49   639.5    2.6      52.590
2013    6        4     9  25    2.49   639.3    2.6      52.549
2013    6        4     9  32    2.49   639.1    2.6      52.509
2013    6        4     9  39    2.49   638.9    2.6      52.468
2013    6        4     9  46    2.49   638.7    2.6      52.428
2013    6        4     9  53    2.49   638.5    2.6      52.388
2013    6        4    10   0    2.49   638.3    2.6      52.347
2013    6        4    10   7    2.49   638.1    2.6      52.307
2013    6        4    10  14    2.48   637.9    2.6      52.267
2013    6        4    10  21    2.48   637.7    2.6      52.227
2013    6        4    10  28    2.48   637.5    2.6      52.187
2013    6        4    10  35    2.48   637.3    2.6      52.147
2013    6        4    10  42    2.48   637.1    2.6      52.107
2013    6        4    10  48    2.48   636.9    2.6      52.068
2013    6        4    10  55    2.48   636.7    2.6      52.028
2013    6        4    11   2    2.48   636.5    2.6      51.989
2013    6        4    11   9    2.48   636.3    2.6      51.950
2013    6        4    11  16    2.47   636.1    2.6      51.911
2013    6        4    11  23    2.47   635.9    2.6      51.873
2013    6        4    11  30    2.47   635.7    2.6      51.835
2013    6        4    11  37    2.47   635.5    2.6      51.797
2013    6        4    11  44    2.47   635.2    2.6      51.759
2013    6        4    11  51    2.47   635.0    2.6      51.722
2013    6        4    11  58    2.47   634.8    2.6      51.685
2013    6        4    12   5    2.47   634.6    2.6      51.648
2013    6        4    12  11    2.47   634.4    2.6      51.611
2013    6        4    12  18    2.47   634.2    2.6      51.575
2013    6        4    12  25    2.46   634.0    2.6      51.539
2013    6        4    12  32    2.46   633.8    2.6      51.503
2013    6        4    12  39    2.46   633.5    2.6      51.468
2013    6        4    12  46    2.46   633.3    2.6      51.433
2013    6        4    12  53    2.46   633.1    2.6      51.398
2013    6        4    13   0    2.46   632.9    2.6      51.363
2013    6        4    13   7    2.46   632.7    2.6      51.328
2013    6        4    13  14    2.46   632.5    2.6      51.293
2013    6        4    13  21    2.46   632.2    2.6      51.259
2013    6        4    13  28    2.46   632.0    2.6      51.224
2013    6        4    13  34    2.45   631.8    2.6      51.189
2013    6        4    13  41    2.45   631.6    2.6      51.155
2013    6        4    13  48    2.45   631.4    2.6      51.120
2013    6        4    13  55    2.45   631.1    2.6      51.086
2013    6        4    14   2    2.45   630.9    2.6      51.051
2013    6        4    14   9    2.45   630.7    2.6      51.016
2013    6        4    14  16    2.45   630.5    2.6      50.981
2013    6        4    14  23    2.45   630.3    2.6      50.946
2013    6        4    14  30    2.45   630.0    2.6      50.911
2013    6        4    14  37    2.45   629.8    2.6      50.875
2013    6        4    14  44    2.45   629.6    2.6      50.840
2013    6        4    14  50    2.44   629.4    2.6      50.804
2013    6        4    14  57    2.44   629.1    2.6      50.769
2013    6        4    15   4    2.44   628.9    2.6      50.733
2013    6        4    15  11    2.44   628.7    2.6      50.697
2013    6        4    15  18    2.44   628.5    2.6      50.661
2013    6        4    15  25    2.44   628.2    2.6      50.625
2013    6        4    15  32    2.44   628.0    2.6      50.588
2013    6        4    15  39    2.44   627.8    2.6      50.552
2013    6        4    15  46    2.44   627.5    2.6      50.516
2013    6        4    15  53    2.44   627.3    2.6      50.479
2013    6        4    16   0    2.44   627.1    2.6      50.443
2013    6        4    16   7    2.44   626.9    2.6      50.406
2013    6        4    16  14    2.43   626.6    2.6      50.370
2013    6        4    16  20    2.43   626.4    2.6      50.333
2013    6        4    16  27    2.43   626.2    2.6      50.296
2013    6        4    16  34    2.43   625.9    2.6      50.259
2013    6        4    16  41    2.43   625.7    2.6      50.222
2013    6        4    16  48    2.43   625.5    2.7      50.185
2013    6        4    16  55    2.43   625.2    2.7      50.148
2013    6        4    17   2    2.43   625.0    2.7      50.111
2013    6        4    17   9    2.43   624.8    2.7      50.073
2013    6        4    17  16    2.43   624.5    2.7      50.036
2013    6        4    17  23    2.43   624.3    2.7      49.998
2013    6        4    17  30    2.43   624.1    2.7      49.959
2013    6        4    17  37    2.43   623.8    2.7      49.921
2013    6        4    17  44    2.42   623.6    2.7      49.882
2013    6        4    17  50    2.42   623.3    2.7      49.844
2013    6        4    17  57    2.42   623.1    2.7      49.805
2013    6        4    18   4    2.42   622.9    2.7      49.765
2013    6        4    18  11    2.42   622.6    2.7      49.726
2013    6        4    18  18    2.42   622.4    2.7      49.687
2013    6        4    18  25    2.42   622.1    2.7      49.648
2013    6        4    18  32    2.42   621.9    2.7      49.608
2013    6        4    18  39    2.42   621.7    2.7      49.569
2013    6        4    18  46    2.42   621.4    2.7      49.530
2013    6        4    18  53    2.42   621.2    2.7      49.491
2013    6        4    19   0    2.42   620.9    2.7      49.452
2013    6        4    19   7    2.42   620.7    2.7      49.413
2013    6        4    19  13    2.42   620.5    2.7      49.374
2013    6        4    19  20    2.42   620.2    2.7      49.336
2013    6        4    19  27    2.41   620.0    2.7      49.298
2013    6        4    19  34    2.41   619.7    2.7      49.261
2013    6        4    19  41    2.41   619.5    2.7      49.223
2013    6        4    19  48    2.41   619.2    2.7      49.186
2013    6        4    19  55    2.41   619.0    2.7      49.150
2013    6        4    20   2    2.41   618.7    2.7      49.114
2013    6        4    20   9    2.41   618.5    2.7      49.078
2013    6        4    20  16    2.41   618.3    2.7      49.042
2013    6        4    20  23    2.41   618.0    2.7      49.007
2013    6        4    20  30    2.41   617.8    2.7      48.972
2013    6        4    20  36    2.41   617.5    2.7      48.938
2013    6        4    20  43    2.41   617.3    2.7      48.903
2013    6        4    20  50    2.41   617.0    2.7      48.869
2013    6        4    20  57    2.41   616.8    2.7      48.836
2013    6        4    21   4    2.41   616.5    2.7      48.802
2013    6        4    21  11    2.41   616.3    2.7      48.769
2013    6        4    21  18    2.41   616.1    2.7      48.736
2013    6        4    21  25    2.41   615.8    2.7      48.703
2013    6        4    21  32    2.41   615.6    2.7      48.670
2013    6        4    21  39    2.41   615.3    2.7      48.638
2013    6        4    21  46    2.41   615.1    2.7      48.605
2013    6        4    21  52    2.40   614.8    2.7      48.573
2013    6        4    21  59    2.40   614.6    2.7      48.540
2013    6        4    22   6    2.40   614.4    2.7      48.508
2013    6        4    22  13    2.40   614.1    2.7      48.476
2013    6        4    22  20    2.40   613.9    2.7      48.444
2013    6        4    22  27    2.40   613.6    2.7      48.411
2013    6        4    22  34    2.40   613.4    2.7      48.379
2013    6        4    22  41    2.40   613.1    2.7      48.347
2013    6        4    22  48    2.40   612.9    2.7      48.314
2013    6        4    22  55    2.40   612.7    2.7      48.282
2013    6        4    23   2    2.40   612.4    2.7      48.249
2013    6        4    23   9    2.40   612.2    2.7      48.216
2013    6        4    23  15    2.40   611.9    2.7      48.184
2013    6        4    23  22    2.40   611.7    2.7      48.151
2013    6        4    23  29    2.40   611.4    2.7      48.118
2013    6        4    23  36    2.40   611.2    2.7      48.085
2013    6        4    23  43    2.40   610.9    2.7      48.052
2013    6        4    23  50    2.40   610.7    2.7      48.019
2013    6        4    23  57    2.40   610.5    2.8      47.986
2013    6        5     0   4    2.40   610.2    2.8      47.952
2013    6        5     0  11    2.40   610.0    2.8      47.919
2013    6        5     0  18    2.40   609.7    2.8      47.886
2013    6        5     0  25    2.40   609.5    2.8      47.853
2013    6        5     0  32    2.40   609.2    2.8      47.819
2013    6        5     0  39    2.40   609.0    2.8      47.786
2013    6        5     0  45    2.40   608.7    2.8      47.753
2013    6        5     0  52    2.40   608.5    2.8      47.719
2013    6        5     0  59    2.40   608.3    2.8      47.686
2013    6        5     1   6    2.40   608.0    2.8      47.653
2013    6        5     1  13    2.40   607.8    2.8      47.620
2013    6        5     1  20    2.39   607.5    2.8      47.587
2013    6        5     1  27    2.39   607.3    2.8      47.553
2013    6        5     1  34    2.39   607.0    2.8      47.521
2013    6        5     1  41    2.39   606.8    2.8      47.488
2013    6        5     1  48    2.39   606.6    2.8      47.455
2013    6        5     1  55    2.39   606.3    2.8      47.422
2013    6        5     2   2    2.39   606.1    2.8      47.389
2013    6        5     2   9    2.39   605.8    2.8      47.356
2013    6        5     2  15    2.39   605.6    2.8      47.324
2013    6        5     2  22    2.39   605.4    2.8      47.291
2013    6        5     2  29    2.39   605.1    2.8      47.258
2013    6        5     2  36    2.39   604.9    2.8      47.226
2013    6        5     2  43    2.39   604.6    2.8      47.193
2013    6        5     2  50    2.39   604.4    2.8      47.160
2013    6        5     2  57    2.39   604.2    2.8      47.128
2013    6        5     3   4    2.39   603.9    2.8      47.095
2013    6        5     3  11    2.39   603.7    2.8      47.063
2013    6        5     3  18    2.39   603.4    2.8      47.031
2013    6        5     3  25    2.39   603.2    2.8      46.998
2013    6        5     3  32    2.39   603.0    2.8      46.966
2013    6        5     3  38    2.39   602.7    2.8      46.934
2013    6        5     3  45    2.39   602.5    2.8      46.902
2013    6        5     3  52    2.39   602.2    2.8      46.870
2013    6        5     3  59    2.39   602.0    2.8      46.838
2013    6        5     4   6    2.39   601.8    2.8      46.806
2013    6        5     4  13    2.39   601.5    2.8      46.775
2013    6        5     4  20    2.39   601.3    2.8      46.743
2013    6        5     4  27    2.39   601.1    2.8      46.712
2013    6        5     4  34    2.39   600.8    2.8      46.680
2013    6        5     4  41    2.39   600.6    2.8      46.649
2013    6        5     4  48    2.39   600.3    2.8      46.618
2013    6        5     4  54    2.39   600.1    2.8      46.588
2013    6        5     5   1    2.39   599.9    2.8      46.557
2013    6        5     5   8    2.39   599.6    2.8      46.526
2013    6        5     5  15    2.39   599.4    2.8      46.496
2013    6        5     5  22    2.39   599.2    2.8      46.466
2013    6        5     5  29    2.39   598.9    2.8      46.436
2013    6        5     5  36    2.39   598.7    2.8      46.406
2013    6        5     5  43    2.39   598.5    2.8      46.376
2013    6        5     5  50    2.39   598.2    2.9      46.347
2013    6        5     5  57    2.39   598.0    2.9      46.317
2013    6        5     6   4    2.39   597.8    2.9      46.288
2013    6        5     6  11    2.39   597.5    2.9      46.259
2013    6        5     6  17    2.39   597.3    2.9      46.229
2013    6        5     6  24    2.39   597.1    2.9      46.200
2013    6        5     6  31    2.39   596.8    2.9      46.171
2013    6        5     6  38    2.39   596.6    2.9      46.142
2013    6        5     6  45    2.39   596.4    2.9      46.114
2013    6        5     6  52    2.39   596.1    2.9      46.085
2013    6        5     6  59    2.39   595.9    2.9      46.056
2013    6        5     7   6    2.39   595.7    2.9      46.028
2013    6        5     7  13    2.39   595.4    2.9      45.999
2013    6        5     7  20    2.39   595.2    2.9      45.971
2013    6        5     7  27    2.39   595.0    2.9      45.943
2013    6        5     7  34    2.39   594.7    2.9      45.914
2013    6        5     7  41    2.39   594.5    2.9      45.886
2013    6        5     7  47    2.39   594.3    2.9      45.858
2013    6        5     7  54    2.39   594.0    2.9      45.830
2013    6        5     8   1    2.39   593.8    2.9      45.802
2013    6        5     8   8    2.39   593.6    2.9      45.774
2013    6        5     8  15    2.39   593.3    2.9      45.746
2013    6        5     8  22    2.39   593.1    2.9      45.719
2013    6        5     8  29    2.39   592.9    2.9      45.691
2013    6        5     8  36    2.39   592.6    2.9      45.664
2013    6        5     8  43    2.40   592.4    2.9      45.636
2013    6        5     8  50    2.40   592.2    2.9      45.609
2013    6        5     8  57    2.40   591.9    2.9      45.582
2013    6        5     9   4    2.40   591.7    2.9      45.555
2013    6        5     9  11    2.40   591.5    2.9      45.528
2013    6        5     9  17    2.40   591.2    2.9      45.501
2013    6        5     9  24    2.40   591.0    2.9      45.475
2013    6        5     9  31    2.40   590.8    2.9      45.448
2013    6        5     9  38    2.40   590.5    2.9      45.422
2013    6        5     9  45    2.40   590.3    2.9      45.396
2013    6        5     9  52    2.40   590.1    2.9      45.370
2013    6        5     9  59    2.40   589.8    2.9      45.344
2013    6        5    10   6    2.40   589.6    2.9      45.319
2013    6        5    10  13    2.40   589.4    2.9      45.293
2013    6        5    10  20    2.40   589.1    2.9      45.268
2013    6        5    10  27    2.40   588.9    2.9      45.243
2013    6        5    10  34    2.40   588.7    2.9      45.219
2013    6        5    10  40    2.40   588.4    2.9      45.194
2013    6        5    10  47    2.40   588.2    2.9      45.170
2013    6        5    10  54    2.40   588.0    3.0      45.146
2013    6        5    11   1    2.40   587.7    3.0      45.123
2013    6        5    11   8    2.40   587.5    3.0      45.099
2013    6        5    11  15    2.40   587.3    3.0      45.076
2013    6        5    11  22    2.40   587.0    3.0      45.053
2013    6        5    11  29    2.40   586.8    3.0      45.030
2013    6        5    11  36    2.40   586.6    3.0      45.008
2013    6        5    11  43    2.40   586.4    3.0      44.985
2013    6        5    11  50    2.40   586.1    3.0      44.963
2013    6        5    11  56    2.40   585.9    3.0      44.940
2013    6        5    12   3    2.41   585.7    3.0      44.918
2013    6        5    12  10    2.41   585.5    3.0      44.895
2013    6        5    12  17    2.41   585.2    3.0      44.873
2013    6        5    12  24    2.41   585.0    3.0      44.851
2013    6        5    12  31    2.41   584.8    3.0      44.828
2013    6        5    12  38    2.41   584.6    3.0      44.806
2013    6        5    12  45    2.41   584.3    3.0      44.784
2013    6        5    12  52    2.41   584.1    3.0      44.762
2013    6        5    12  59    2.41   583.9    3.0      44.740
2013    6        5    13   6    2.41   583.7    3.0      44.718
2013    6        5    13  13    2.41   583.5    3.0      44.696
2013    6        5    13  19    2.41   583.2    3.0      44.674
2013    6        5    13  26    2.41   583.0    3.0      44.652
2013    6        5    13  33    2.41   582.8    3.0      44.631
2013    6        5    13  40    2.41   582.6    3.0      44.610
2013    6        5    13  47    2.41   582.4    3.0      44.589
2013    6        5    13  54    2.41   582.2    3.0      44.568
2013    6        5    14   1    2.41   581.9    3.0      44.548
2013    6        5    14   8    2.41   581.7    3.0      44.527
2013    6        5    14  15    2.41   581.5    3.0      44.507
2013    6        5    14  22    2.42   581.3    3.0      44.487
2013    6        5    14  29    2.42   581.1    3.0      44.468
2013    6        5    14  36    2.42   580.9    3.0      44.449
2013    6        5    14  43    2.42   580.7    3.0      44.430
2013    6        5    14  49    2.42   580.5    3.0      44.411
2013    6        5    14  56    2.42   580.2    3.0      44.393
2013    6        5    15   3    2.42   580.0    3.0      44.375
2013    6        5    15  10    2.42   579.8    3.0      44.357
2013    6        5    15  17    2.42   579.6    3.1      44.339
2013    6        5    15  24    2.42   579.4    3.1      44.322
2013    6        5    15  31    2.42   579.2    3.1      44.305
2013    6        5    15  38    2.42   579.0    3.1      44.288
2013    6        5    15  45    2.42   578.8    3.1      44.271
2013    6        5    15  52    2.42   578.6    3.1      44.255
2013    6        5    15  59    2.42   578.4    3.1      44.238
2013    6        5    16   6    2.43   578.2    3.1      44.223
2013    6        5    16  12    2.43   577.9    3.1      44.207
2013    6        5    16  19    2.43   577.7    3.1      44.191
2013    6        5    16  26    2.43   577.5    3.1      44.176
2013    6        5    16  33    2.43   577.3    3.1      44.161
2013    6        5    16  40    2.43   577.1    3.1      44.146
2013    6        5    16  47    2.43   576.9    3.1      44.132
2013    6        5    16  54    2.43   576.7    3.1      44.118
2013    6        5    17   1    2.43   576.5    3.1      44.104
2013    6        5    17   8    2.43   576.3    3.1      44.090
2013    6        5    17  15    2.43   576.1    3.1      44.077
2013    6        5    17  22    2.43   575.9    3.1      44.064
2013    6        5    17  29    2.44   575.7    3.1      44.052
2013    6        5    17  35    2.44   575.5    3.1      44.040
2013    6        5    17  42    2.44   575.3    3.1      44.028
2013    6        5    17  49    2.44   575.1    3.1      44.016
2013    6        5    17  56    2.44   574.9    3.1      44.005
2013    6        5    18   3    2.44   574.7    3.1      43.994
2013    6        5    18  10    2.44   574.5    3.1      43.984
2013    6        5    18  17    2.44   574.3    3.1      43.974
2013    6        5    18  24    2.44   574.1    3.1      43.964
2013    6        5    18  31    2.44   573.9    3.1      43.954
2013    6        5    18  38    2.44   573.7    3.1      43.945
2013    6        5    18  45    2.45   573.5    3.1      43.936
2013    6        5    18  52    2.45   573.4    3.1      43.926
2013    6        5    18  58    2.45   573.2    3.1      43.917
2013    6        5    19   5    2.45   573.0    3.1      43.908
2013    6        5    19  12    2.45   572.8    3.2      43.899
2013    6        5    19  19    2.45   572.6    3.2      43.890
2013    6        5    19  26    2.45   572.4    3.2      43.881
2013    6        5    19  33    2.45   572.2    3.2      43.872
2013    6        5    19  40    2.45   572.1    3.2      43.862
2013    6        5    19  47    2.45   571.9    3.2      43.853
2013    6        5    19  54    2.45   571.7    3.2      43.844
2013    6        5    20   1    2.46   571.5    3.2      43.834
2013    6        5    20   8    2.46   571.3    3.2      43.825
2013    6        5    20  15    2.46   571.1    3.2      43.816
2013    6        5    20  21    2.46   571.0    3.2      43.806
2013    6        5    20  28    2.46   570.8    3.2      43.797
2013    6        5    20  35    2.46   570.6    3.2      43.787
2013    6        5    20  42    2.46   570.4    3.2      43.778
2013    6        5    20  49    2.46   570.2    3.2      43.769
2013    6        5    20  56    2.46   570.1    3.2      43.759
2013    6        5    21   3    2.46   569.9    3.2      43.750
2013    6        5    21  10    2.46   569.7    3.2      43.741
2013    6        5    21  17    2.47   569.5    3.2      43.732
2013    6        5    21  24    2.47   569.4    3.2      43.724
2013    6        5    21  31    2.47   569.2    3.2      43.715
2013    6        5    21  38    2.47   569.0    3.2      43.707
2013    6        5    21  44    2.47   568.9    3.2      43.699
2013    6        5    21  51    2.47   568.7    3.2      43.692
2013    6        5    21  58    2.47   568.5    3.2      43.684
2013    6        5    22   5    2.47   568.3    3.2      43.678
2013    6        5    22  12    2.47   568.2    3.2      43.671
2013    6        5    22  19    2.47   568.0    3.2      43.665
2013    6        5    22  26    2.47   567.9    3.2      43.659
2013    6        5    22  33    2.48   567.7    3.2      43.654
2013    6        5    22  40    2.48   567.5    3.2      43.649
2013    6        5    22  47    2.48   567.4    3.2      43.645
2013    6        5    22  54    2.48   567.2    3.2      43.641
2013    6        5    23   1    2.48   567.1    3.2      43.638
2013    6        5    23   8    2.48   566.9    3.3      43.635
2013    6        5    23  14    2.48   566.7    3.3      43.632
2013    6        5    23  21    2.48   566.6    3.3      43.630
2013    6        5    23  28    2.48   566.4    3.3      43.628
2013    6        5    23  35    2.49   566.3    3.3      43.627
2013    6        5    23  42    2.49   566.1    3.3      43.626
2013    6        5    23  49    2.49   566.0    3.3      43.626
2013    6        5    23  56    2.49   565.8    3.3      43.626
2013    6        6     0   3    2.49   565.7    3.3      43.626
2013    6        6     0  10    2.49   565.5    3.3      43.627
2013    6        6     0  17    2.49   565.4    3.3      43.628
2013    6        6     0  24    2.49   565.3    3.3      43.630
2013    6        6     0  31    2.49   565.1    3.3      43.632
2013    6        6     0  37    2.50   565.0    3.3      43.634
2013    6        6     0  44    2.50   564.9    3.3      43.637
2013    6        6     0  51    2.50   564.7    3.3      43.640
2013    6        6     0  58    2.50   564.6    3.3      43.644
2013    6        6     1   5    2.50   564.5    3.3      43.648
2013    6        6     1  12    2.50   564.3    3.3      43.652
2013    6        6     1  19    2.50   564.2    3.3      43.656
2013    6        6     1  26    2.50   564.1    3.3      43.660
2013    6        6     1  33    2.50   563.9    3.3      43.665
2013    6        6     1  40    2.51   563.8    3.3      43.670
2013    6        6     1  47    2.51   563.7    3.3      43.675
2013    6        6     1  54    2.51   563.6    3.3      43.679
2013    6        6     2   0    2.51   563.5    3.3      43.684
2013    6        6     2   7    2.51   563.3    3.3      43.688
2013    6        6     2  14    2.51   563.2    3.3      43.693
2013    6        6     2  21    2.51   563.1    3.3      43.697
2013    6        6     2  28    2.51   563.0    3.3      43.702
2013    6        6     2  35    2.51   562.9    3.3      43.706
2013    6        6     2  42    2.51   562.7    3.4      43.710
2013    6        6     2  49    2.51   562.6    3.4      43.714
2013    6        6     2  56    2.52   562.5    3.4      43.718
2013    6        6     3   3    2.52   562.4    3.4      43.721
2013    6        6     3  10    2.52   562.3    3.4      43.725
2013    6        6     3  16    2.52   562.2    3.4      43.728
2013    6        6     3  23    2.52   562.0    3.4      43.731
2013    6        6     3  30    2.52   561.9    3.4      43.734
2013    6        6     3  37    2.52   561.8    3.4      43.736
2013    6        6     3  44    2.52   561.7    3.4      43.739
2013    6        6     3  51    2.52   561.6    3.4      43.741
2013    6        6     3  58    2.52   561.5    3.4      43.742
2013    6        6     4   5    2.52   561.4    3.4      43.744
2013    6        6     4  12    2.52   561.2    3.4      43.745
2013    6        6     4  19    2.52   561.1    3.4      43.745
2013    6        6     4  26    2.53   561.0    3.4      43.746
2013    6        6     4  33    2.53   560.9    3.4      43.746
2013    6        6     4  40    2.53   560.8    3.4      43.746
2013    6        6     4  46    2.53   560.7    3.4      43.746
2013    6        6     4  53    2.53   560.6    3.4      43.745
2013    6        6     5   0    2.53   560.5    3.4      43.744
2013    6        6     5   7    2.53   560.4    3.4      43.743
2013    6        6     5  14    2.53   560.2    3.4      43.742
2013    6        6     5  21    2.53   560.1    3.4      43.741
2013    6        6     5  28    2.53   560.0    3.4      43.739
2013    6        6     5  35    2.53   559.9    3.4      43.738
2013    6        6     5  42    2.53   559.8    3.4      43.736
2013    6        6     5  49    2.53   559.7    3.4      43.735
2013    6        6     5  56    2.54   559.6    3.4      43.734
2013    6        6     6   3    2.54   559.5    3.4      43.733
2013    6        6     6   9    2.54   559.4    3.4      43.732
2013    6        6     6  16    2.54   559.3    3.4      43.731
2013    6        6     6  23    2.54   559.2    3.4      43.730
2013    6        6     6  30    2.54   559.1    3.4      43.730
2013    6        6     6  37    2.54   559.0    3.4      43.730
2013    6        6     6  44    2.54   558.9    3.4      43.730
2013    6        6     6  51    2.54   558.8    3.4      43.731
2013    6        6     6  58    2.54   558.7    3.4      43.732
2013    6        6     7   5    2.54   558.7    3.4      43.734
2013    6        6     7  12    2.54   558.6    3.4      43.736
2013    6        6     7  19    2.54   558.5    3.4      43.739
2013    6        6     7  26    2.54   558.4    3.4      43.742
2013    6        6     7  33    2.54   558.3    3.4      43.745
2013    6        6     7  39    2.55   558.2    3.4      43.749
2013    6        6     7  46    2.55   558.1    3.4      43.754
2013    6        6     7  53    2.55   558.1    3.5      43.759
2013    6        6     8   0    2.55   558.0    3.5      43.764
2013    6        6     8   7    2.55   557.9    3.5      43.770
2013    6        6     8  14    2.55   557.8    3.5      43.777
2013    6        6     8  21    2.55   557.8    3.5      43.784
2013    6        6     8  28    2.55   557.7    3.5      43.791
2013    6        6     8  35    2.55   557.6    3.5      43.799
2013    6        6     8  42    2.55   557.5    3.5      43.807
2013    6        6     8  49    2.55   557.5    3.5      43.815
2013    6        6     8  55    2.55   557.4    3.5      43.823
2013    6        6     9   2    2.55   557.3    3.5      43.832
2013    6        6     9   9    2.55   557.3    3.5      43.840
2013    6        6     9  16    2.55   557.2    3.5      43.849
2013    6        6     9  23    2.55   557.1    3.5      43.858
2013    6        6     9  30    2.55   557.1    3.5      43.866
2013    6        6     9  37    2.55   557.0    3.5      43.875
2013    6        6     9  44    2.56   556.9    3.5      43.884
2013    6        6     9  51    2.56   556.9    3.5      43.893
2013    6        6     9  58    2.56   556.8    3.5      43.902
2013    6        6    10   5    2.56   556.7    3.5      43.910
2013    6        6    10  12    2.56   556.7    3.5      43.919
2013    6        6    10  18    2.56   556.6    3.5      43.928
2013    6        6    10  25    2.56   556.5    3.5      43.937
2013    6        6    10  32    2.56   556.5    3.5      43.946
2013    6        6    10  39    2.56   556.4    3.5      43.954
2013    6        6    10  46    2.56   556.3    3.5      43.963
2013    6        6    10  53    2.56   556.3    3.5      43.972
2013    6        6    11   0    2.56   556.2    3.5      43.980
2013    6        6    11   7    2.56   556.2    3.5      43.988
2013    6        6    11  14    2.56   556.1    3.5      43.996
2013    6        6    11  21    2.56   556.0    3.5      44.003
2013    6        6    11  28    2.56   556.0    3.5      44.009
2013    6        6    11  35    2.56   555.9    3.5      44.015
2013    6        6    11  41    2.56   555.8    3.5      44.019
2013    6        6    11  48    2.56   555.8    3.5      44.023
2013    6        6    11  55    2.56   555.7    3.5      44.026
2013    6        6    12   2    2.56   555.6    3.5      44.028
2013    6        6    12   9    2.56   555.6    3.5      44.029
2013    6        6    12  16    2.56   555.5    3.5      44.029
2013    6        6    12  23    2.56   555.5    3.5      44.029
2013    6        6    12  30    2.56   555.4    3.5      44.028
2013    6        6    12  37    2.56   555.3    3.5      44.026
2013    6        6    12  44    2.56   555.3    3.5      44.023
2013    6        6    12  51    2.56   555.2    3.5      44.020
2013    6        6    12  58    2.56   555.2    3.5      44.016
2013    6        6    13   5    2.56   555.1    3.5      44.012
2013    6        6    13  11    2.56   555.0    3.5      44.007
2013    6        6    13  18    2.56   555.0    3.5      44.002
2013    6        6    13  25    2.56   554.9    3.5      43.996
2013    6        6    13  32    2.56   554.8    3.5      43.990
2013    6        6    13  39    2.56   554.8    3.5      43.984
2013    6        6    13  46    2.56   554.7    3.5      43.977
2013    6        6    13  53    2.56   554.7    3.5      43.971
2013    6        6    14   0    2.56   554.6    3.5      43.964
2013    6        6    14   7    2.56   554.5    3.5      43.958
2013    6        6    14  14    2.56   554.5    3.5      43.951
2013    6        6    14  21    2.56   554.4    3.5      43.945
2013    6        6    14  28    2.56   554.4    3.5      43.938
2013    6        6    14  34    2.56   554.3    3.5      43.932
2013    6        6    14  41    2.56   554.3    3.5      43.927
2013    6        6    14  48    2.56   554.2    3.5      43.921
2013    6        6    14  55    2.56   554.1    3.5      43.916
2013    6        6    15   2    2.56   554.1    3.5      43.912
2013    6        6    15   9    2.56   554.0    3.5      43.908
2013    6        6    15  16    2.56   554.0    3.5      43.905
2013    6        6    15  23    2.56   553.9    3.5      43.902
2013    6        6    15  30    2.56   553.9    3.5      43.900
2013    6        6    15  37    2.56   553.8    3.6      43.899
2013    6        6    15  44    2.56   553.7    3.6      43.899
2013    6        6    15  51    2.56   553.7    3.6      43.899
2013    6        6    15  57    2.56   553.6    3.6      43.901
2013    6        6    16   4    2.56   553.6    3.6      43.903
2013    6        6    16  11    2.56   553.6    3.6      43.907
2013    6        6    16  18    2.56   553.5    3.6      43.911
2013    6        6    16  25    2.56   553.5    3.6      43.916
2013    6        6    16  32    2.56   553.4    3.6      43.921
2013    6        6    16  39    2.56   553.4    3.6      43.926
2013    6        6    16  46    2.56   553.3    3.6      43.932
2013    6        6    16  53    2.56   553.3    3.6      43.937
2013    6        6    17   0    2.56   553.3    3.6      43.943
2013    6        6    17   7    2.56   553.2    3.6      43.949
2013    6        6    17  14    2.56   553.2    3.6      43.956
2013    6        6    17  20    2.56   553.2    3.6      43.962
2013    6        6    17  27    2.56   553.1    3.6      43.969
2013    6        6    17  34    2.56   553.1    3.6      43.975
2013    6        6    17  41    2.56   553.1    3.6      43.981
2013    6        6    17  48    2.56   553.0    3.6      43.987
2013    6        6    17  55    2.56   553.0    3.6      43.993
2013    6        6    18   2    2.56   553.0    3.6      43.998
2013    6        6    18   9    2.56   552.9    3.6      44.003
2013    6        6    18  16    2.56   552.9    3.6      44.008
2013    6        6    18  23    2.56   552.9    3.6      44.012
2013    6        6    18  30    2.56   552.8    3.6      44.016
2013    6        6    18  36    2.56   552.8    3.6      44.019
2013    6        6    18  43    2.56   552.8    3.6      44.021
2013    6        6    18  50    2.56   552.7    3.6      44.022
2013    6        6    18  57    2.56   552.7    3.6      44.022
2013    6        6    19   4    2.56   552.7    3.6      44.022
2013    6        6    19  11    2.56   552.6    3.6      44.020
2013    6        6    19  18    2.56   552.6    3.6      44.018
2013    6        6    19  25    2.56   552.6    3.6      44.015
2013    6        6    19  32    2.56   552.5    3.6      44.011
2013    6        6    19  39    2.56   552.5    3.6      44.006
2013    6        6    19  46    2.56   552.5    3.6      44.000
2013    6        6    19  53    2.56   552.4    3.6      43.994
2013    6        6    20   0    2.55   552.4    3.6      43.986
2013    6        6    20   6    2.55   552.4    3.6      43.978
2013    6        6    20  13    2.55   552.3    3.6      43.970
2013    6        6    20  20    2.55   552.3    3.6      43.960
2013    6        6    20  27    2.55   552.2    3.6      43.950
2013    6        6    20  34    2.55   552.2    3.6      43.939
2013    6        6    20  41    2.55   552.2    3.6      43.928
2013    6        6    20  48    2.55   552.1    3.6      43.916
2013    6        6    20  55    2.55   552.1    3.6      43.904
2013    6        6    21   2    2.55   552.0    3.6      43.892
2013    6        6    21   9    2.55   552.0    3.6      43.878
2013    6        6    21  16    2.55   552.0    3.6      43.865
2013    6        6    21  23    2.55   551.9    3.6      43.851
2013    6        6    21  30    2.55   551.9    3.6      43.837
2013    6        6    21  36    2.54   551.8    3.6      43.822
2013    6        6    21  43    2.54   551.8    3.6      43.808
2013    6        6    21  50    2.54   551.7    3.6      43.793
2013    6        6    21  57    2.54   551.7    3.6      43.778
2013    6        6    22   4    2.54   551.6    3.6      43.763
2013    6        6    22  11    2.54   551.6    3.6      43.748
2013    6        6    22  18    2.54   551.6    3.6      43.732
2013    6        6    22  25    2.54   551.5    3.6      43.717
2013    6        6    22  32    2.54   551.5    3.6      43.703
2013    6        6    22  39    2.54   551.4    3.6      43.688
2013    6        6    22  46    2.54   551.4    3.6      43.674
2013    6        6    22  53    2.54   551.3    3.6      43.660
2013    6        6    22  59    2.53   551.3    3.6      43.646
2013    6        6    23   6    2.53   551.2    3.6      43.633
2013    6        6    23  13    2.53   551.2    3.6      43.621
2013    6        6    23  20    2.53   551.2    3.6      43.609
2013    6        6    23  27    2.53   551.1    3.6      43.599
2013    6        6    23  34    2.53   551.1    3.6      43.589
2013    6        6    23  41    2.53   551.0    3.6      43.580
2013    6        6    23  48    2.53   551.0    3.6      43.572
2013    6        6    23  55    2.53   551.0    3.6      43.564
2013    6        7     0   2    2.53   550.9    3.6      43.556
2013    6        7     0   9    2.53   550.9    3.6      43.549
2013    6        7     0  15    2.53   550.9    3.6      43.541
2013    6        7     0  22    2.52   550.8    3.6      43.535
2013    6        7     0  29    2.52   550.8    3.6      43.529
2013    6        7     0  36    2.52   550.8    3.6      43.523
2013    6        7     0  43    2.52   550.7    3.6      43.518
2013    6        7     0  50    2.52   550.7    3.6      43.513
2013    6        7     0  57    2.52   550.7    3.6      43.508
2013    6        7     1   4    2.52   550.7    3.6      43.502
2013    6        7     1  11    2.52   550.6    3.6      43.497
2013    6        7     1  18    2.52   550.6    3.6      43.491
2013    6        7     1  25    2.52   550.6    3.6      43.486
2013    6        7     1  32    2.52   550.5    3.6      43.480
2013    6        7     1  38    2.51   550.5    3.6      43.474
2013    6        7     1  45    2.51   550.5    3.6      43.468
2013    6        7     1  52    2.51   550.4    3.6      43.461
2013    6        7     1  59    2.51   550.4    3.6      43.455
2013    6        7     2   6    2.51   550.4    3.6      43.448
2013    6        7     2  13    2.51   550.3    3.6      43.441
2013    6        7     2  20    2.51   550.3    3.6      43.434
2013    6        7     2  27    2.51   550.3    3.6      43.427
2013    6        7     2  34    2.51   550.2    3.6      43.419
2013    6        7     2  41    2.50   550.2    3.6      43.412
2013    6        7     2  48    2.50   550.1    3.6      43.404
2013    6        7     2  55    2.50   550.1    3.6      43.395
2013    6        7     3   2    2.50   550.1    3.6      43.387
2013    6        7     3   8    2.50   550.0    3.6      43.377
2013    6        7     3  15    2.50   550.0    3.6      43.367
2013    6        7     3  22    2.50   549.9    3.6      43.356
2013    6        7     3  29    2.49   549.9    3.6      43.344
2013    6        7     3  36    2.49   549.8    3.6      43.330
2013    6        7     3  43    2.49   549.8    3.6      43.316
2013    6        7     3  50    2.49   549.7    3.6      43.301
2013    6        7     3  57    2.49   549.7    3.6      43.284
2013    6        7     4   4    2.49   549.6    3.6      43.267
2013    6        7     4  11    2.48   549.6    3.6      43.248
2013    6        7     4  18    2.48   549.5    3.6      43.229
2013    6        7     4  25    2.48   549.5    3.6      43.209
2013    6        7     4  31    2.48   549.4    3.6      43.188
2013    6        7     4  38    2.48   549.4    3.6      43.166
2013    6        7     4  45    2.48   549.3    3.5      43.143
2013    6        7     4  52    2.48   549.3    3.5      43.120
2013    6        7     4  59    2.47   549.2    3.5      43.095
2013    6        7     5   6    2.47   549.1    3.5      43.070
2013    6        7     5  13    2.47   549.1    3.5      43.045
2013    6        7     5  20    2.47   549.0    3.5      43.018
2013    6        7     5  27    2.47   549.0    3.5      42.991
2013    6        7     5  34    2.46   548.9    3.5      42.963
2013    6        7     5  41    2.46   548.8    3.5      42.935
2013    6        7     5  48    2.46   548.8    3.5      42.906
2013    6        7     5  54    2.46   548.7    3.5      42.876
2013    6        7     6   1    2.46   548.6    3.5      42.846
2013    6        7     6   8    2.46   548.6    3.5      42.815
2013    6        7     6  15    2.45   548.5    3.5      42.784
2013    6        7     6  22    2.45   548.4    3.5      42.752
2013    6        7     6  29    2.45   548.4    3.5      42.720
2013    6        7     6  36    2.45   548.3    3.5      42.688
2013    6        7     6  43    2.45   548.2    3.5      42.656
2013    6        7     6  50    2.44   548.2    3.5      42.624
2013    6        7     6  57    2.44   548.1    3.5      42.591
2013    6        7     7   4    2.44   548.0    3.5      42.559
2013    6        7     7  11    2.44   547.9    3.5      42.527
2013    6        7     7  17    2.44   547.9    3.5      42.495
2013    6        7     7  24    2.44   547.8    3.5      42.463
2013    6        7     7  31    2.43   547.7    3.5      42.432
2013    6        7     7  38    2.43   547.6    3.5      42.400
2013    6        7     7  45    2.43   547.6    3.5      42.370
2013    6        7     7  52    2.43   547.5    3.5      42.340
2013    6        7     7  59    2.43   547.4    3.5      42.311
2013    6        7     8   6    2.42   547.3    3.5      42.282
2013    6        7     8  13    2.42   547.2    3.5      42.254
2013    6        7     8  20    2.42   547.1    3.5      42.227
2013    6        7     8  27    2.42   547.1    3.5      42.201
2013    6        7     8  33    2.42   547.0    3.5      42.176
2013    6        7     8  40    2.41   546.9    3.5      42.152
2013    6        7     8  47    2.41   546.8    3.5      42.130
2013    6        7     8  54    2.41   546.7    3.5      42.108
2013    6        7     9   1    2.41   546.6    3.5      42.088
2013    6        7     9   8    2.41   546.5    3.5      42.069
2013    6        7     9  15    2.41   546.4    3.5      42.051
2013    6        7     9  22    2.40   546.3    3.5      42.034
2013    6        7     9  29    2.40   546.2    3.5      42.018
2013    6        7     9  36    2.40   546.1    3.5      42.002
2013    6        7     9  43    2.40   546.0    3.5      41.986
2013    6        7     9  50    2.40   545.9    3.5      41.972
2013    6        7     9  57    2.39   545.8    3.5      41.958
2013    6        7    10   3    2.39   545.7    3.5      41.945
2013    6        7    10  10    2.39   545.6    3.5      41.932
2013    6        7    10  17    2.39   545.5    3.5      41.919
2013    6        7    10  24    2.39   545.4    3.5      41.905
2013    6        7    10  31    2.39   545.3    3.5      41.890
2013    6        7    10  38    2.38   545.2    3.5      41.874
2013    6        7    10  45    2.38   545.1    3.5      41.856
2013    6        7    10  52    2.38   545.0    3.5      41.837
2013    6        7    10  59    2.38   544.9    3.5      41.817
2013    6        7    11   6    2.38   544.8    3.5      41.795
2013    6        7    11  13    2.37   544.7    3.5      41.772
2013    6        7    11  20    2.37   544.6    3.5      41.747
2013    6        7    11  26    2.37   544.5    3.5      41.721
2013    6        7    11  33    2.37   544.3    3.5      41.693
2013    6        7    11  40    2.37   544.2    3.5      41.664
2013    6        7    11  47    2.36   544.1    3.5      41.633
2013    6        7    11  54    2.36   544.0    3.5      41.602
2013    6        7    12   1    2.36   543.9    3.5      41.569
2013    6        7    12   8    2.36   543.8    3.5      41.535
2013    6        7    12  15    2.35   543.6    3.5      41.500
2013    6        7    12  22    2.35   543.5    3.5      41.464
2013    6        7    12  29    2.35   543.4    3.5      41.427
2013    6        7    12  36    2.35   543.3    3.5      41.388
2013    6        7    12  43    2.35   543.1    3.5      41.349
2013    6        7    12  50    2.34   543.0    3.5      41.309
2013    6        7    12  56    2.34   542.9    3.5      41.268
2013    6        7    13   3    2.34   542.8    3.5      41.226
2013    6        7    13  10    2.34   542.6    3.5      41.183
2013    6        7    13  17    2.34   542.5    3.4      41.139
2013    6        7    13  24    2.33   542.3    3.4      41.095
2013    6        7    13  31    2.33   542.2    3.4      41.050
2013    6        7    13  38    2.33   542.1    3.4      41.005
2013    6        7    13  45    2.33   541.9    3.4      40.959
2013    6        7    13  52    2.32   541.8    3.4      40.912
2013    6        7    13  59    2.32   541.6    3.4      40.865
2013    6        7    14   6    2.32   541.5    3.4      40.818
2013    6        7    14  12    2.32   541.3    3.4      40.771
2013    6        7    14  19    2.32   541.2    3.4      40.723
2013    6        7    14  26    2.31   541.1    3.4      40.676
2013    6        7    14  33    2.31   540.9    3.4      40.628
2013    6        7    14  40    2.31   540.7    3.4      40.581
2013    6        7    14  47    2.31   540.6    3.4      40.533
2013    6        7    14  54    2.30   540.4    3.4      40.486
2013    6        7    15   1    2.30   540.3    3.4      40.439
2013    6        7    15   8    2.30   540.1    3.4      40.392
2013    6        7    15  15    2.30   540.0    3.4      40.345
2013    6        7    15  22    2.30   539.8    3.4      40.298
2013    6        7    15  29    2.29   539.6    3.4      40.252
2013    6        7    15  35    2.29   539.5    3.4      40.207
2013    6        7    15  42    2.29   539.3    3.4      40.162
2013    6        7    15  49    2.29   539.1    3.4      40.119
2013    6        7    15  56    2.29   539.0    3.4      40.076
2013    6        7    16   3    2.28   538.8    3.4      40.034
2013    6        7    16  10    2.28   538.6    3.4      39.994
2013    6        7    16  17    2.28   538.4    3.4      39.955
2013    6        7    16  24    2.28   538.3    3.4      39.918
2013    6        7    16  31    2.28   538.1    3.4      39.882
2013    6        7    16  38    2.27   537.9    3.4      39.847
2013    6        7    16  45    2.27   537.7    3.4      39.813
2013    6        7    16  52    2.27   537.6    3.4      39.780
2013    6        7    16  58    2.27   537.4    3.4      39.748
2013    6        7    17   5    2.27   537.2    3.4      39.717
2013    6        7    17  12    2.26   537.1    3.4      39.688
2013    6        7    17  19    2.26   536.9    3.4      39.659
2013    6        7    17  26    2.26   536.7    3.4      39.632
2013    6        7    17  33    2.26   536.5    3.4      39.605
2013    6        7    17  40    2.26   536.3    3.4      39.578
2013    6        7    17  47    2.26   536.2    3.4      39.551
2013    6        7    17  54    2.25   536.0    3.4      39.523
2013    6        7    18   1    2.25   535.8    3.4      39.494
2013    6        7    18   8    2.25   535.6    3.4      39.464
2013    6        7    18  15    2.25   535.4    3.4      39.433
2013    6        7    18  22    2.25   535.3    3.4      39.401
2013    6        7    18  28    2.24   535.1    3.4      39.367
2013    6        7    18  35    2.24   534.9    3.4      39.333
2013    6        7    18  42    2.24   534.7    3.4      39.297
2013    6        7    18  49    2.24   534.5    3.4      39.261
2013    6        7    18  56    2.24   534.3    3.4      39.223
2013    6        7    19   3    2.23   534.2    3.4      39.185
2013    6        7    19  10    2.23   534.0    3.4      39.145
2013    6        7    19  17    2.23   533.8    3.4      39.105
2013    6        7    19  24    2.23   533.6    3.4      39.064
2013    6        7    19  31    2.23   533.4    3.4      39.022
2013    6        7    19  38    2.23   533.2    3.4      38.979
2013    6        7    19  45    2.22   533.0    3.4      38.936
2013    6        7    19  51    2.22   532.8    3.4      38.891
2013    6        7    19  58    2.22   532.6    3.4      38.846
2013    6        7    20   5    2.22   532.4    3.4      38.800
2013    6        7    20  12    2.22   532.2    3.4      38.753
2013    6        7    20  19    2.21   532.0    3.4      38.706
2013    6        7    20  26    2.21   531.8    3.4      38.658
2013    6        7    20  33    2.21   531.6    3.4      38.610
2013    6        7    20  40    2.21   531.4    3.4      38.561
2013    6        7    20  47    2.21   531.2    3.4      38.512
2013    6        7    20  54    2.20   531.0    3.4      38.462
2013    6        7    21   1    2.20   530.8    3.4      38.412
2013    6        7    21   8    2.20   530.6    3.4      38.362
2013    6        7    21  14    2.20   530.4    3.4      38.311
2013    6        7    21  21    2.20   530.2    3.4      38.260
2013    6        7    21  28    2.19   530.0    3.4      38.209
2013    6        7    21  35    2.19   529.8    3.4      38.158
2013    6        7    21  42    2.19   529.6    3.4      38.107
2013    6        7    21  49    2.19   529.4    3.4      38.056
2013    6        7    21  56    2.19   529.2    3.4      38.004
2013    6        7    22   3    2.18   529.0    3.4      37.953
2013    6        7    22  10    2.18   528.7    3.4      37.901
2013    6        7    22  17    2.18   528.5    3.4      37.850
2013    6        7    22  24    2.18   528.3    3.4      37.798
2013    6        7    22  30    2.18   528.1    3.4      37.747
2013    6        7    22  37    2.17   527.9    3.4      37.695
2013    6        7    22  44    2.17   527.7    3.4      37.643
2013    6        7    22  51    2.17   527.4    3.4      37.591
2013    6        7    22  58    2.17   527.2    3.4      37.540
2013    6        7    23   5    2.17   527.0    3.4      37.489
2013    6        7    23  12    2.17   526.8    3.4      37.438
2013    6        7    23  19    2.16   526.5    3.4      37.387
2013    6        7    23  26    2.16   526.3    3.4      37.337
2013    6        7    23  33    2.16   526.1    3.4      37.287
2013    6        7    23  40    2.16   525.8    3.4      37.238
2013    6        7    23  47    2.16   525.6    3.4      37.189
2013    6        7    23  53    2.16   525.4    3.4      37.142
2013    6        8     0   0    2.15   525.2    3.4      37.094
2013    6        8     0   7    2.15   524.9    3.4      37.047
2013    6        8     0  14    2.15   524.7    3.4      37.001
2013    6        8     0  21    2.15   524.5    3.4      36.956
2013    6        8     0  28    2.15   524.3    3.4      36.911
2013    6        8     0  35    2.14   524.0    3.4      36.867
2013    6        8     0  42    2.14   523.8    3.4      36.824
2013    6        8     0  49    2.14   523.6    3.4      36.781
2013    6        8     0  56    2.14   523.4    3.4      36.740
2013    6        8     1   3    2.14   523.1    3.4      36.698
2013    6        8     1  10    2.14   522.9    3.4      36.657
2013    6        8     1  17    2.13   522.7    3.4      36.616
2013    6        8     1  23    2.13   522.5    3.4      36.575
2013    6        8     1  30    2.13   522.2    3.4      36.534
2013    6        8     1  37    2.13   522.0    3.4      36.492
2013    6        8     1  44    2.13   521.8    3.4      36.450
2013    6        8     1  51    2.13   521.5    3.4      36.408
2013    6        8     1  58    2.12   521.3    3.4      36.366
2013    6        8     2   5    2.12   521.1    3.4      36.323
2013    6        8     2  12    2.12   520.9    3.4      36.280
2013    6        8     2  19    2.12   520.6    3.4      36.237
2013    6        8     2  26    2.12   520.4    3.4      36.194
2013    6        8     2  33    2.12   520.2    3.4      36.150
2013    6        8     2  40    2.11   519.9    3.4      36.106
2013    6        8     2  46    2.11   519.7    3.4      36.062
2013    6        8     2  53    2.11   519.5    3.4      36.018
2013    6        8     3   0    2.11   519.2    3.4      35.973
2013    6        8     3   7    2.11   519.0    3.4      35.929
2013    6        8     3  14    2.11   518.8    3.4      35.884
2013    6        8     3  21    2.10   518.5    3.4      35.839
2013    6        8     3  28    2.10   518.3    3.4      35.794
2013    6        8     3  35    2.10   518.0    3.4      35.749
2013    6        8     3  42    2.10   517.8    3.4      35.704
2013    6        8     3  49    2.10   517.6    3.4      35.658
2013    6        8     3  56    2.10   517.3    3.4      35.613
2013    6        8     4   3    2.09   517.1    3.4      35.568
2013    6        8     4   9    2.09   516.9    3.4      35.522
2013    6        8     4  16    2.09   516.6    3.4      35.476
2013    6        8     4  23    2.09   516.4    3.4      35.430
2013    6        8     4  30    2.09   516.2    3.4      35.385
2013    6        8     4  37    2.09   515.9    3.4      35.339
2013    6        8     4  44    2.09   515.7    3.4      35.293
2013    6        8     4  51    2.08   515.4    3.4      35.246
2013    6        8     4  58    2.08   515.2    3.4      35.200
2013    6        8     5   5    2.08   515.0    3.4      35.153
2013    6        8     5  12    2.08   514.7    3.4      35.107
2013    6        8     5  19    2.08   514.5    3.4      35.060
2013    6        8     5  26    2.08   514.2    3.4      35.013
2013    6        8     5  32    2.07   514.0    3.4      34.966
2013    6        8     5  39    2.07   513.7    3.4      34.919
2013    6        8     5  46    2.07   513.5    3.4      34.871
2013    6        8     5  53    2.07   513.3    3.4      34.823
2013    6        8     6   0    2.07   513.0    3.4      34.775
2013    6        8     6   7    2.07   512.8    3.4      34.727
2013    6        8     6  14    2.06   512.5    3.4      34.679
2013    6        8     6  21    2.06   512.3    3.4      34.631
2013    6        8     6  28    2.06   512.0    3.4      34.582
2013    6        8     6  35    2.06   511.8    3.4      34.534
2013    6        8     6  42    2.06   511.5    3.4      34.485
2013    6        8     6  48    2.06   511.2    3.4      34.437
2013    6        8     6  55    2.05   511.0    3.4      34.388
2013    6        8     7   2    2.05   510.7    3.4      34.340
2013    6        8     7   9    2.05   510.5    3.4      34.291
2013    6        8     7  16    2.05   510.2    3.4      34.243
2013    6        8     7  23    2.05   509.9    3.4      34.195
2013    6        8     7  30    2.05   509.7    3.4      34.147
2013    6        8     7  37    2.04   509.4    3.4      34.099
2013    6        8     7  44    2.04   509.2    3.4      34.052
2013    6        8     7  51    2.04   508.9    3.4      34.005
2013    6        8     7  58    2.04   508.6    3.4      33.958
2013    6        8     8   5    2.04   508.4    3.4      33.911
2013    6        8     8  12    2.04   508.1    3.4      33.865
2013    6        8     8  18    2.04   507.8    3.4      33.819
2013    6        8     8  25    2.03   507.6    3.4      33.774
2013    6        8     8  32    2.03   507.3    3.4      33.728
2013    6        8     8  39    2.03   507.0    3.4      33.684
2013    6        8     8  46    2.03   506.7    3.4      33.639
2013    6        8     8  53    2.03   506.5    3.4      33.594
2013    6        8     9   0    2.03   506.2    3.4      33.550
2013    6        8     9   7    2.03   505.9    3.4      33.506
2013    6        8     9  14    2.02   505.7    3.4      33.463
2013    6        8     9  21    2.02   505.4    3.4      33.419
2013    6        8     9  28    2.02   505.1    3.4      33.376
2013    6        8     9  35    2.02   504.9    3.4      33.332
2013    6        8     9  42    2.02   504.6    3.4      33.289
2013    6        8     9  48    2.02   504.3    3.4      33.247
2013    6        8     9  55    2.02   504.0    3.4      33.204
2013    6        8    10   2    2.02   503.7    3.4      33.161
2013    6        8    10   9    2.01   503.5    3.4      33.119
2013    6        8    10  16    2.01   503.2    3.4      33.077
2013    6        8    10  23    2.01   502.9    3.4      33.034
2013    6        8    10  30    2.01   502.6    3.4      32.992
2013    6        8    10  37    2.01   502.4    3.4      32.951
2013    6        8    10  44    2.01   502.1    3.4      32.909
2013    6        8    10  51    2.01   501.8    3.4      32.868
2013    6        8    10  58    2.01   501.5    3.4      32.826
2013    6        8    11   5    2.01   501.3    3.4      32.785
2013    6        8    11  11    2.00   501.0    3.4      32.744
2013    6        8    11  18    2.00   500.7    3.4      32.703
2013    6        8    11  25    2.00   500.4    3.4      32.663
2013    6        8    11  32    2.00   500.1    3.4      32.622
2013    6        8    11  39    2.00   499.9    3.4      32.582
2013    6        8    11  46    2.00   499.6    3.4      32.542
2013    6        8    11  53    2.00   499.3    3.4      32.502
2013    6        8    12   0    2.00   499.0    3.4      32.462
2013    6        8    12   7    2.00   498.7    3.4      32.423
2013    6        8    12  14    1.99   498.4    3.4      32.383
2013    6        8    12  21    1.99   498.2    3.4      32.344
2013    6        8    12  27    1.99   497.9    3.4      32.305
2013    6        8    12  34    1.99   497.6    3.4      32.267
2013    6        8    12  41    1.99   497.3    3.4      32.228
2013    6        8    12  48    1.99   497.0    3.4      32.189
2013    6        8    12  55    1.99   496.7    3.4      32.151
2013    6        8    13   2    1.99   496.5    3.4      32.113
2013    6        8    13   9    1.99   496.2    3.4      32.074
2013    6        8    13  16    1.98   495.9    3.4      32.036
2013    6        8    13  23    1.98   495.6    3.4      31.998
2013    6        8    13  30    1.98   495.3    3.4      31.959
2013    6        8    13  37    1.98   495.0    3.4      31.921
2013    6        8    13  43    1.98   494.7    3.4      31.883
2013    6        8    13  50    1.98   494.4    3.4      31.845
2013    6        8    13  57    1.98   494.1    3.4      31.806
2013    6        8    14   4    1.98   493.9    3.4      31.768
2013    6        8    14  11    1.98   493.6    3.4      31.730
2013    6        8    14  18    1.98   493.3    3.4      31.691
2013    6        8    14  25    1.97   493.0    3.4      31.653
2013    6        8    14  32    1.97   492.7    3.4      31.615
2013    6        8    14  39    1.97   492.4    3.4      31.576
2013    6        8    14  46    1.97   492.1    3.4      31.538
2013    6        8    14  53    1.97   491.8    3.4      31.500
2013    6        8    15   0    1.97   491.5    3.4      31.462
2013    6        8    15   7    1.97   491.2    3.4      31.424
2013    6        8    15  13    1.97   490.9    3.4      31.386
2013    6        8    15  20    1.97   490.6    3.4      31.348
2013    6        8    15  27    1.97   490.3    3.4      31.311
2013    6        8    15  34    1.96   490.0    3.4      31.273
2013    6        8    15  41    1.96   489.7    3.4      31.235
2013    6        8    15  48    1.96   489.4    3.4      31.198
2013    6        8    15  55    1.96   489.1    3.4      31.161
2013    6        8    16   2    1.96   488.8    3.4      31.124
2013    6        8    16   9    1.96   488.5    3.4      31.087
2013    6        8    16  16    1.96   488.2    3.4      31.050
2013    6        8    16  23    1.96   487.9    3.4      31.014
2013    6        8    16  30    1.96   487.6    3.4      30.977
2013    6        8    16  37    1.96   487.3    3.4      30.941
2013    6        8    16  43    1.96   487.0    3.4      30.905
2013    6        8    16  50    1.96   486.7    3.4      30.869
2013    6        8    16  57    1.96   486.4    3.4      30.834
2013    6        8    17   4    1.95   486.1    3.4      30.798
2013    6        8    17  11    1.95   485.8    3.4      30.763
2013    6        8    17  18    1.95   485.5    3.4      30.728
2013    6        8    17  25    1.95   485.2    3.4      30.693
2013    6        8    17  32    1.95   484.9    3.4      30.659
2013    6        8    17  39    1.95   484.6    3.5      30.625
2013    6        8    17  46    1.95   484.3    3.5      30.591
2013    6        8    17  53    1.95   484.0    3.5      30.557
2013    6        8    18   0    1.95   483.7    3.5      30.523
2013    6        8    18   6    1.95   483.4    3.5      30.489
2013    6        8    18  13    1.95   483.1    3.5      30.456
2013    6        8    18  20    1.95   482.8    3.5      30.423
2013    6        8    18  27    1.95   482.5    3.5      30.390
2013    6        8    18  34    1.95   482.2    3.5      30.357
2013    6        8    18  41    1.95   481.9    3.5      30.324
2013    6        8    18  48    1.95   481.5    3.5      30.292
2013    6        8    18  55    1.95   481.2    3.5      30.260
2013    6        8    19   2    1.95   480.9    3.5      30.227
2013    6        8    19   9    1.95   480.6    3.5      30.195
2013    6        8    19  16    1.95   480.3    3.5      30.164
2013    6        8    19  23    1.95   480.0    3.5      30.132
2013    6        8    19  29    1.94   479.7    3.5      30.100
2013    6        8    19  36    1.94   479.4    3.5      30.069
2013    6        8    19  43    1.94   479.1    3.5      30.038
2013    6        8    19  50    1.94   478.8    3.5      30.006
2013    6        8    19  57    1.94   478.5    3.5      29.975
2013    6        8    20   4    1.94   478.2    3.5      29.944
2013    6        8    20  11    1.94   477.9    3.5      29.913
2013    6        8    20  18    1.94   477.6    3.5      29.882
2013    6        8    20  25    1.94   477.3    3.5      29.852
2013    6        8    20  32    1.94   477.0    3.5      29.821
2013    6        8    20  39    1.94   476.7    3.5      29.790
2013    6        8    20  45    1.94   476.4    3.5      29.760
2013    6        8    20  52    1.94   476.1    3.5      29.729
2013    6        8    20  59    1.94   475.8    3.5      29.698
2013    6        8    21   6    1.94   475.5    3.5      29.668
2013    6        8    21  13    1.94   475.2    3.5      29.637
2013    6        8    21  20    1.94   474.9    3.5      29.606
2013    6        8    21  27    1.94   474.6    3.5      29.576
2013    6        8    21  34    1.94   474.3    3.5      29.545
2013    6        8    21  41    1.94   474.0    3.5      29.515
2013    6        8    21  48    1.94   473.7    3.5      29.484
2013    6        8    21  55    1.94   473.4    3.6      29.454
2013    6        8    22   2    1.94   473.1    3.6      29.423
2013    6        8    22   8    1.94   472.8    3.6      29.393
2013    6        8    22  15    1.94   472.5    3.6      29.363
2013    6        8    22  22    1.94   472.2    3.6      29.332
2013    6        8    22  29    1.94   471.9    3.6      29.302
2013    6        8    22  36    1.94   471.6    3.6      29.272
2013    6        8    22  43    1.94   471.3    3.6      29.242
2013    6        8    22  50    1.94   471.0    3.6      29.212
2013    6        8    22  57    1.94   470.7    3.6      29.182
2013    6        8    23   4    1.94   470.3    3.6      29.152
2013    6        8    23  11    1.94   470.0    3.6      29.122
2013    6        8    23  18    1.94   469.7    3.6      29.092
2013    6        8    23  25    1.94   469.4    3.6      29.062
2013    6        8    23  32    1.94   469.1    3.6      29.033
2013    6        8    23  38    1.94   468.8    3.6      29.003
2013    6        8    23  45    1.94   468.5    3.6      28.973
2013    6        8    23  52    1.94   468.2    3.6      28.944
2013    6        8    23  59    1.94   467.9    3.6      28.915
2013    6        9     0   6    1.94   467.6    3.6      28.886
