year    month   day   hour  minute  B_enl V_enl   n_enl       T_enl
[year] [month] [day] [hour][minute] [nT]  [km/s]  [cm-3]      [kK]
2013    5       21     0   4    3.97   335.0    8.9      25.046
2013    5       21     0  11    3.98   334.9    8.9      25.048
2013    5       21     0  17    3.98   334.8    8.9      25.051
2013    5       21     0  23    3.98   334.7    8.9      25.054
2013    5       21     0  29    3.99   334.6    8.9      25.057
2013    5       21     0  36    3.99   334.5    9.0      25.060
2013    5       21     0  42    4.00   334.4    9.0      25.064
2013    5       21     0  48    4.00   334.3    9.0      25.067
2013    5       21     0  54    4.00   334.1    9.0      25.071
2013    5       21     1   1    4.01   334.0    9.0      25.074
2013    5       21     1   7    4.01   333.9    9.0      25.078
2013    5       21     1  13    4.01   333.8    9.0      25.082
2013    5       21     1  19    4.02   333.7    9.0      25.086
2013    5       21     1  26    4.02   333.6    9.1      25.091
2013    5       21     1  32    4.03   333.5    9.1      25.095
2013    5       21     1  38    4.03   333.4    9.1      25.100
2013    5       21     1  44    4.03   333.3    9.1      25.104
2013    5       21     1  50    4.04   333.1    9.1      25.109
2013    5       21     1  57    4.04   333.0    9.1      25.114
2013    5       21     2   3    4.05   332.9    9.1      25.120
2013    5       21     2   9    4.05   332.8    9.1      25.125
2013    5       21     2  15    4.06   332.7    9.2      25.130
2013    5       21     2  21    4.06   332.6    9.2      25.136
2013    5       21     2  28    4.06   332.5    9.2      25.142
2013    5       21     2  34    4.07   332.4    9.2      25.148
2013    5       21     2  40    4.07   332.3    9.2      25.154
2013    5       21     2  46    4.08   332.2    9.2      25.160
2013    5       21     2  52    4.08   332.1    9.2      25.166
2013    5       21     2  59    4.09   332.0    9.2      25.173
2013    5       21     3   5    4.09   331.9    9.3      25.179
2013    5       21     3  11    4.10   331.8    9.3      25.186
2013    5       21     3  17    4.10   331.7    9.3      25.193
2013    5       21     3  23    4.10   331.6    9.3      25.200
2013    5       21     3  29    4.11   331.5    9.3      25.207
2013    5       21     3  36    4.11   331.4    9.3      25.214
2013    5       21     3  42    4.12   331.3    9.3      25.222
2013    5       21     3  48    4.12   331.2    9.4      25.229
2013    5       21     3  54    4.13   331.1    9.4      25.237
2013    5       21     4   1    4.13   331.0    9.4      25.245
2013    5       21     4   7    4.14   330.9    9.4      25.253
2013    5       21     4  13    4.14   330.8    9.4      25.261
2013    5       21     4  19    4.15   330.7    9.4      25.269
2013    5       21     4  25    4.15   330.6    9.4      25.278
2013    5       21     4  32    4.16   330.5    9.4      25.286
2013    5       21     4  38    4.16   330.4    9.5      25.295
2013    5       21     4  44    4.17   330.3    9.5      25.304
2013    5       21     4  50    4.17   330.2    9.5      25.313
2013    5       21     4  56    4.18   330.1    9.5      25.322
2013    5       21     5   3    4.18   330.0    9.5      25.331
2013    5       21     5   9    4.19   329.9    9.5      25.341
2013    5       21     5  15    4.20   329.8    9.6      25.350
2013    5       21     5  21    4.20   329.7    9.6      25.360
2013    5       21     5  28    4.21   329.6    9.6      25.370
2013    5       21     5  34    4.21   329.5    9.6      25.381
2013    5       21     5  40    4.22   329.4    9.6      25.391
2013    5       21     5  46    4.22   329.3    9.6      25.402
2013    5       21     5  53    4.23   329.2    9.6      25.412
2013    5       21     5  59    4.23   329.1    9.7      25.423
2013    5       21     6   5    4.24   329.0    9.7      25.434
2013    5       21     6  12    4.25   328.9    9.7      25.446
2013    5       21     6  18    4.25   328.9    9.7      25.457
2013    5       21     6  24    4.26   328.8    9.7      25.469
2013    5       21     6  30    4.26   328.7    9.7      25.480
2013    5       21     6  37    4.27   328.6    9.8      25.492
2013    5       21     6  43    4.28   328.5    9.8      25.505
2013    5       21     6  49    4.28   328.4    9.8      25.517
2013    5       21     6  56    4.29   328.3    9.8      25.529
2013    5       21     7   2    4.29   328.2    9.8      25.542
2013    5       21     7   8    4.30   328.1    9.8      25.555
2013    5       21     7  14    4.31   328.0    9.9      25.568
2013    5       21     7  21    4.31   328.0    9.9      25.581
2013    5       21     7  27    4.32   327.9    9.9      25.594
2013    5       21     7  33    4.33   327.8    9.9      25.608
2013    5       21     7  40    4.33   327.7    9.9      25.621
2013    5       21     7  46    4.34   327.6   10.0      25.635
2013    5       21     7  52    4.35   327.5   10.0      25.649
2013    5       21     7  58    4.35   327.4   10.0      25.663
2013    5       21     8   5    4.36   327.4   10.0      25.677
2013    5       21     8  11    4.37   327.3   10.0      25.692
2013    5       21     8  17    4.37   327.2   10.0      25.706
2013    5       21     8  23    4.38   327.1   10.1      25.721
2013    5       21     8  30    4.39   327.0   10.1      25.735
2013    5       21     8  36    4.39   326.9   10.1      25.750
2013    5       21     8  42    4.40   326.9   10.1      25.765
2013    5       21     8  48    4.41   326.8   10.1      25.780
2013    5       21     8  54    4.41   326.7   10.1      25.796
2013    5       21     9   1    4.42   326.6   10.2      25.811
2013    5       21     9   7    4.43   326.5   10.2      25.826
2013    5       21     9  13    4.44   326.5   10.2      25.842
2013    5       21     9  19    4.44   326.4   10.2      25.858
2013    5       21     9  26    4.45   326.3   10.2      25.874
2013    5       21     9  32    4.46   326.2   10.3      25.890
2013    5       21     9  38    4.46   326.2   10.3      25.906
2013    5       21     9  44    4.47   326.1   10.3      25.922
2013    5       21     9  50    4.48   326.0   10.3      25.939
2013    5       21     9  56    4.49   325.9   10.3      25.955
2013    5       21    10   3    4.49   325.9   10.4      25.972
2013    5       21    10   9    4.50   325.8   10.4      25.988
2013    5       21    10  15    4.51   325.7   10.4      26.005
2013    5       21    10  21    4.52   325.6   10.4      26.022
2013    5       21    10  27    4.52   325.6   10.4      26.039
2013    5       21    10  34    4.53   325.5   10.5      26.056
2013    5       21    10  40    4.54   325.4   10.5      26.074
2013    5       21    10  46    4.55   325.4   10.5      26.091
2013    5       21    10  52    4.55   325.3   10.5      26.109
2013    5       21    10  58    4.56   325.2   10.5      26.127
2013    5       21    11   5    4.57   325.2   10.6      26.145
2013    5       21    11  11    4.58   325.1   10.6      26.163
2013    5       21    11  17    4.58   325.0   10.6      26.181
2013    5       21    11  23    4.59   325.0   10.6      26.199
2013    5       21    11  29    4.60   324.9   10.6      26.218
2013    5       21    11  36    4.61   324.8   10.7      26.237
2013    5       21    11  42    4.62   324.7   10.7      26.256
2013    5       21    11  48    4.63   324.7   10.7      26.275
2013    5       21    11  54    4.63   324.6   10.7      26.294
2013    5       21    12   1    4.64   324.6   10.7      26.314
2013    5       21    12   7    4.65   324.5   10.8      26.333
2013    5       21    12  13    4.66   324.4   10.8      26.353
2013    5       21    12  19    4.67   324.4   10.8      26.374
2013    5       21    12  25    4.68   324.3   10.8      26.394
2013    5       21    12  32    4.69   324.2   10.9      26.415
2013    5       21    12  38    4.70   324.2   10.9      26.436
2013    5       21    12  44    4.71   324.1   10.9      26.457
2013    5       21    12  50    4.71   324.0   10.9      26.478
2013    5       21    12  57    4.72   324.0   11.0      26.500
2013    5       21    13   3    4.73   323.9   11.0      26.523
2013    5       21    13   9    4.74   323.8   11.0      26.546
2013    5       21    13  15    4.75   323.8   11.0      26.569
2013    5       21    13  22    4.76   323.7   11.1      26.593
2013    5       21    13  28    4.77   323.6   11.1      26.617
2013    5       21    13  34    4.78   323.6   11.1      26.642
2013    5       21    13  41    4.79   323.5   11.1      26.668
2013    5       21    13  47    4.80   323.5   11.2      26.694
2013    5       21    13  53    4.81   323.4   11.2      26.721
2013    5       21    14   0    4.82   323.4   11.2      26.749
2013    5       21    14   6    4.84   323.3   11.3      26.778
2013    5       21    14  12    4.85   323.2   11.3      26.807
2013    5       21    14  18    4.86   323.2   11.3      26.837
2013    5       21    14  25    4.87   323.1   11.3      26.868
2013    5       21    14  31    4.88   323.1   11.4      26.899
2013    5       21    14  37    4.89   323.0   11.4      26.932
2013    5       21    14  43    4.90   323.0   11.4      26.966
2013    5       21    14  50    4.91   323.0   11.5      27.001
2013    5       21    14  56    4.93   322.9   11.5      27.037
2013    5       21    15   2    4.94   322.9   11.5      27.074
2013    5       21    15   9    4.95   322.8   11.6      27.112
2013    5       21    15  15    4.96   322.8   11.6      27.151
2013    5       21    15  21    4.97   322.8   11.6      27.192
2013    5       21    15  27    4.98   322.8   11.7      27.233
2013    5       21    15  34    5.00   322.8   11.7      27.275
2013    5       21    15  40    5.01   322.7   11.7      27.318
2013    5       21    15  46    5.02   322.7   11.8      27.361
2013    5       21    15  52    5.03   322.7   11.8      27.404
2013    5       21    15  58    5.04   322.7   11.8      27.448
2013    5       21    16   5    5.05   322.7   11.8      27.491
2013    5       21    16  11    5.07   322.6   11.9      27.534
2013    5       21    16  17    5.08   322.6   11.9      27.578
2013    5       21    16  23    5.09   322.6   11.9      27.621
2013    5       21    16  30    5.10   322.6   12.0      27.664
2013    5       21    16  36    5.11   322.6   12.0      27.706
2013    5       21    16  42    5.13   322.6   12.0      27.749
2013    5       21    16  48    5.14   322.5   12.1      27.791
2013    5       21    16  54    5.15   322.5   12.1      27.833
2013    5       21    17   1    5.16   322.5   12.1      27.875
2013    5       21    17   7    5.17   322.5   12.1      27.916
2013    5       21    17  13    5.19   322.5   12.2      27.958
2013    5       21    17  19    5.20   322.5   12.2      27.999
2013    5       21    17  25    5.21   322.5   12.2      28.040
2013    5       21    17  31    5.22   322.5   12.3      28.081
2013    5       21    17  38    5.24   322.5   12.3      28.121
2013    5       21    17  44    5.25   322.5   12.3      28.162
2013    5       21    17  50    5.26   322.4   12.4      28.202
2013    5       21    17  56    5.27   322.4   12.4      28.242
2013    5       21    18   2    5.29   322.4   12.4      28.283
2013    5       21    18   9    5.30   322.4   12.5      28.323
2013    5       21    18  15    5.31   322.4   12.5      28.363
2013    5       21    18  21    5.33   322.4   12.5      28.404
2013    5       21    18  27    5.34   322.4   12.6      28.444
2013    5       21    18  33    5.35   322.4   12.6      28.485
2013    5       21    18  40    5.37   322.4   12.6      28.526
2013    5       21    18  46    5.38   322.4   12.7      28.567
2013    5       21    18  52    5.40   322.5   12.7      28.609
2013    5       21    18  58    5.41   322.5   12.7      28.650
2013    5       21    19   5    5.42   322.5   12.8      28.692
2013    5       21    19  11    5.44   322.5   12.8      28.735
2013    5       21    19  17    5.45   322.5   12.8      28.779
2013    5       21    19  23    5.47   322.5   12.9      28.823
2013    5       21    19  29    5.48   322.5   12.9      28.867
2013    5       21    19  36    5.50   322.5   13.0      28.912
2013    5       21    19  42    5.52   322.5   13.0      28.957
2013    5       21    19  48    5.53   322.6   13.0      29.003
2013    5       21    19  54    5.55   322.6   13.1      29.050
2013    5       21    20   1    5.57   322.6   13.1      29.100
2013    5       21    20   7    5.58   322.6   13.2      29.153
2013    5       21    20  13    5.60   322.7   13.2      29.209
2013    5       21    20  19    5.62   322.7   13.3      29.268
2013    5       21    20  26    5.64   322.8   13.3      29.330
2013    5       21    20  32    5.65   322.8   13.4      29.395
2013    5       21    20  38    5.67   322.9   13.4      29.463
2013    5       21    20  45    5.69   322.9   13.5      29.532
2013    5       21    20  51    5.71   323.0   13.5      29.604
2013    5       21    20  57    5.72   323.1   13.5      29.675
2013    5       21    21   3    5.74   323.1   13.6      29.746
2013    5       21    21  10    5.76   323.2   13.6      29.817
2013    5       21    21  16    5.78   323.2   13.7      29.888
2013    5       21    21  22    5.79   323.3   13.7      29.958
2013    5       21    21  29    5.81   323.3   13.8      30.029
2013    5       21    21  35    5.83   323.4   13.8      30.098
2013    5       21    21  41    5.85   323.5   13.9      30.169
2013    5       21    21  47    5.86   323.5   13.9      30.238
2013    5       21    21  54    5.88   323.6   13.9      30.309
2013    5       21    22   0    5.90   323.6   14.0      30.378
2013    5       21    22   6    5.92   323.7   14.0      30.448
2013    5       21    22  13    5.93   323.8   14.1      30.517
2013    5       21    22  19    5.95   323.9   14.1      30.587
2013    5       21    22  25    5.97   323.9   14.1      30.656
2013    5       21    22  31    5.98   324.0   14.2      30.727
2013    5       21    22  38    6.00   324.1   14.2      30.797
2013    5       21    22  44    6.02   324.2   14.2      30.868
2013    5       21    22  50    6.04   324.2   14.3      30.938
2013    5       21    22  56    6.05   324.3   14.3      31.008
2013    5       21    23   3    6.07   324.4   14.4      31.078
2013    5       21    23   9    6.08   324.5   14.4      31.148
2013    5       21    23  15    6.10   324.6   14.4      31.217
2013    5       21    23  21    6.12   324.6   14.5      31.286
2013    5       21    23  27    6.13   324.7   14.5      31.354
2013    5       21    23  34    6.15   324.8   14.5      31.422
2013    5       21    23  40    6.17   324.9   14.6      31.490
2013    5       21    23  46    6.18   325.0   14.6      31.557
2013    5       21    23  52    6.20   325.1   14.6      31.623
2013    5       21    23  58    6.22   325.1   14.6      31.689
2013    5       22     0   5    6.23   325.2   14.7      31.755
2013    5       22     0  11    6.25   325.3   14.7      31.820
2013    5       22     0  17    6.26   325.4   14.7      31.885
2013    5       22     0  23    6.28   325.5   14.8      31.950
2013    5       22     0  29    6.30   325.6   14.8      32.013
2013    5       22     0  36    6.31   325.7   14.8      32.077
2013    5       22     0  42    6.33   325.8   14.9      32.140
2013    5       22     0  48    6.35   325.9   14.9      32.203
2013    5       22     0  54    6.36   326.0   14.9      32.266
2013    5       22     1   0    6.38   326.1   15.0      32.328
2013    5       22     1   7    6.40   326.2   15.0      32.390
2013    5       22     1  13    6.41   326.3   15.0      32.453
2013    5       22     1  19    6.43   326.3   15.1      32.514
2013    5       22     1  25    6.45   326.4   15.1      32.576
2013    5       22     1  31    6.46   326.5   15.1      32.638
2013    5       22     1  38    6.48   326.6   15.2      32.701
2013    5       22     1  44    6.50   326.7   15.2      32.763
2013    5       22     1  50    6.51   326.9   15.2      32.826
2013    5       22     1  56    6.53   327.0   15.3      32.889
2013    5       22     2   2    6.55   327.1   15.3      32.953
2013    5       22     2   9    6.57   327.2   15.3      33.017
2013    5       22     2  15    6.59   327.3   15.4      33.083
2013    5       22     2  21    6.61   327.4   15.4      33.148
2013    5       22     2  27    6.62   327.5   15.5      33.216
2013    5       22     2  33    6.64   327.7   15.5      33.284
2013    5       22     2  40    6.66   327.8   15.5      33.354
2013    5       22     2  46    6.68   327.9   15.6      33.424
2013    5       22     2  52    6.70   328.0   15.6      33.496
2013    5       22     2  58    6.73   328.2   15.7      33.569
2013    5       22     3   5    6.75   328.3   15.7      33.644
2013    5       22     3  11    6.77   328.5   15.8      33.722
2013    5       22     3  17    6.79   328.6   15.8      33.804
2013    5       22     3  23    6.81   328.8   15.9      33.887
2013    5       22     3  30    6.84   328.9   16.0      33.975
2013    5       22     3  36    6.86   329.1   16.0      34.066
2013    5       22     3  42    6.88   329.3   16.1      34.166
2013    5       22     3  48    6.91   329.5   16.2      34.273
2013    5       22     3  55    6.93   329.8   16.2      34.387
2013    5       22     4   1    6.96   330.0   16.3      34.507
2013    5       22     4   7    6.98   330.2   16.3      34.633
2013    5       22     4  14    7.00   330.5   16.4      34.763
2013    5       22     4  20    7.03   330.7   16.5      34.898
2013    5       22     4  26    7.05   330.9   16.5      35.034
2013    5       22     4  32    7.07   331.2   16.6      35.170
2013    5       22     4  39    7.09   331.4   16.6      35.303
2013    5       22     4  45    7.12   331.6   16.7      35.436
2013    5       22     4  51    7.14   331.9   16.7      35.566
2013    5       22     4  58    7.16   332.1   16.8      35.696
2013    5       22     5   4    7.18   332.3   16.8      35.822
2013    5       22     5  10    7.20   332.6   16.8      35.948
2013    5       22     5  16    7.22   332.8   16.9      36.070
2013    5       22     5  23    7.24   333.0   16.9      36.191
2013    5       22     5  29    7.26   333.2   16.9      36.309
2013    5       22     5  35    7.27   333.5   17.0      36.425
2013    5       22     5  42    7.29   333.7   17.0      36.537
2013    5       22     5  48    7.31   333.9   17.0      36.648
2013    5       22     5  54    7.33   334.1   17.1      36.756
2013    5       22     6   0    7.34   334.3   17.1      36.863
2013    5       22     6   7    7.36   334.5   17.1      36.967
2013    5       22     6  13    7.38   334.7   17.1      37.069
2013    5       22     6  19    7.39   335.0   17.1      37.169
2013    5       22     6  25    7.41   335.2   17.2      37.268
2013    5       22     6  31    7.43   335.4   17.2      37.364
2013    5       22     6  38    7.44   335.6   17.2      37.458
2013    5       22     6  44    7.46   335.8   17.2      37.551
2013    5       22     6  50    7.47   336.0   17.2      37.643
2013    5       22     6  56    7.49   336.2   17.2      37.732
2013    5       22     7   3    7.50   336.4   17.2      37.820
2013    5       22     7   9    7.52   336.6   17.2      37.907
2013    5       22     7  15    7.53   336.8   17.3      37.993
2013    5       22     7  21    7.54   337.0   17.3      38.077
2013    5       22     7  27    7.56   337.2   17.3      38.160
2013    5       22     7  34    7.57   337.4   17.3      38.241
2013    5       22     7  40    7.59   337.6   17.3      38.323
2013    5       22     7  46    7.60   337.8   17.3      38.402
2013    5       22     7  52    7.61   338.0   17.3      38.482
2013    5       22     7  58    7.63   338.2   17.3      38.560
2013    5       22     8   4    7.64   338.4   17.3      38.637
2013    5       22     8  11    7.66   338.7   17.3      38.714
2013    5       22     8  17    7.67   338.9   17.3      38.791
2013    5       22     8  23    7.68   339.1   17.3      38.866
2013    5       22     8  29    7.70   339.3   17.3      38.942
2013    5       22     8  35    7.71   339.5   17.3      39.017
2013    5       22     8  42    7.73   339.7   17.3      39.092
2013    5       22     8  48    7.74   339.9   17.3      39.167
2013    5       22     8  54    7.75   340.1   17.4      39.242
2013    5       22     9   0    7.77   340.3   17.4      39.316
2013    5       22     9   6    7.78   340.5   17.4      39.392
2013    5       22     9  13    7.80   340.7   17.4      39.466
2013    5       22     9  19    7.81   340.9   17.4      39.542
2013    5       22     9  25    7.82   341.2   17.4      39.618
2013    5       22     9  31    7.84   341.4   17.4      39.695
2013    5       22     9  38    7.85   341.6   17.4      39.771
2013    5       22     9  44    7.87   341.8   17.4      39.849
2013    5       22     9  50    7.88   342.0   17.4      39.926
2013    5       22     9  56    7.90   342.3   17.4      40.005
2013    5       22    10   2    7.91   342.5   17.5      40.084
2013    5       22    10   9    7.93   342.7   17.5      40.165
2013    5       22    10  15    7.94   342.9   17.5      40.246
2013    5       22    10  21    7.96   343.2   17.5      40.329
2013    5       22    10  27    7.98   343.4   17.5      40.412
2013    5       22    10  34    7.99   343.6   17.5      40.496
2013    5       22    10  40    8.01   343.8   17.6      40.580
2013    5       22    10  46    8.03   344.1   17.6      40.666
2013    5       22    10  52    8.04   344.3   17.6      40.754
2013    5       22    10  59    8.06   344.6   17.7      40.849
2013    5       22    11   5    8.08   344.8   17.7      40.948
2013    5       22    11  11    8.10   345.1   17.7      41.053
2013    5       22    11  17    8.12   345.4   17.8      41.163
2013    5       22    11  24    8.14   345.7   17.8      41.282
2013    5       22    11  30    8.16   346.0   17.8      41.405
2013    5       22    11  36    8.17   346.3   17.9      41.535
2013    5       22    11  43    8.19   346.5   17.9      41.665
2013    5       22    11  49    8.21   346.8   17.9      41.797
2013    5       22    11  55    8.23   347.1   18.0      41.930
2013    5       22    12   2    8.25   347.4   18.0      42.070
2013    5       22    12   8    8.27   347.7   18.1      42.212
2013    5       22    12  14    8.29   348.1   18.1      42.360
2013    5       22    12  20    8.30   348.4   18.1      42.509
2013    5       22    12  27    8.32   348.8   18.2      42.661
2013    5       22    12  33    8.34   349.1   18.2      42.816
2013    5       22    12  39    8.35   349.5   18.2      42.974
2013    5       22    12  45    8.37   349.8   18.3      43.129
2013    5       22    12  52    8.39   350.2   18.3      43.283
2013    5       22    12  58    8.40   350.6   18.3      43.432
2013    5       22    13   4    8.41   350.9   18.3      43.579
2013    5       22    13  11    8.43   351.3   18.3      43.722
2013    5       22    13  17    8.44   351.7   18.4      43.862
2013    5       22    13  23    8.45   352.0   18.4      43.999
2013    5       22    13  29    8.46   352.4   18.4      44.134
2013    5       22    13  35    8.47   352.8   18.4      44.265
2013    5       22    13  42    8.48   353.1   18.4      44.392
2013    5       22    13  48    8.49   353.5   18.4      44.517
2013    5       22    13  54    8.50   353.9   18.4      44.639
2013    5       22    14   0    8.51   354.2   18.4      44.758
2013    5       22    14   7    8.52   354.6   18.4      44.875
2013    5       22    14  13    8.53   354.9   18.3      44.989
2013    5       22    14  19    8.54   355.3   18.3      45.103
2013    5       22    14  25    8.55   355.6   18.3      45.214
2013    5       22    14  31    8.55   356.0   18.3      45.324
2013    5       22    14  38    8.56   356.3   18.3      45.432
2013    5       22    14  44    8.57   356.7   18.3      45.540
2013    5       22    14  50    8.58   357.0   18.3      45.646
2013    5       22    14  56    8.59   357.3   18.2      45.753
2013    5       22    15   2    8.59   357.7   18.2      45.858
2013    5       22    15   9    8.60   358.0   18.2      45.964
2013    5       22    15  15    8.61   358.4   18.2      46.069
2013    5       22    15  21    8.62   358.7   18.2      46.175
2013    5       22    15  27    8.62   359.0   18.1      46.280
2013    5       22    15  33    8.63   359.4   18.1      46.387
2013    5       22    15  40    8.64   359.7   18.1      46.493
2013    5       22    15  46    8.65   360.1   18.1      46.602
2013    5       22    15  52    8.66   360.4   18.1      46.710
2013    5       22    15  58    8.66   360.8   18.0      46.820
2013    5       22    16   4    8.67   361.1   18.0      46.931
2013    5       22    16  10    8.68   361.5   18.0      47.036
2013    5       22    16  15    8.69   361.8   18.0      47.139
2013    5       22    16  21    8.69   362.1   18.0      47.242
2013    5       22    16  26    8.70   362.4   18.0      47.346
2013    5       22    16  31    8.71   362.7   17.9      47.449
2013    5       22    16  37    8.71   363.0   17.9      47.554
2013    5       22    16  42    8.72   363.3   17.9      47.659
2013    5       22    16  47    8.73   363.6   17.9      47.765
2013    5       22    16  52    8.73   363.9   17.9      47.871
2013    5       22    16  57    8.74   364.2   17.8      47.977
2013    5       22    17   2    8.75   364.5   17.8      48.083
2013    5       22    17   8    8.75   364.8   17.8      48.189
2013    5       22    17  13    8.76   365.1   17.8      48.294
2013    5       22    17  18    8.77   365.5   17.8      48.399
2013    5       22    17  23    8.77   365.8   17.7      48.504
2013    5       22    17  28    8.78   366.1   17.7      48.609
2013    5       22    17  33    8.78   366.4   17.7      48.714
2013    5       22    17  38    8.79   366.7   17.7      48.818
2013    5       22    17  43    8.80   367.0   17.7      48.922
2013    5       22    17  48    8.80   367.3   17.7      49.026
2013    5       22    17  53    8.81   367.6   17.6      49.129
2013    5       22    17  58    8.81   367.9   17.6      49.232
2013    5       22    18   3    8.82   368.2   17.6      49.335
2013    5       22    18   8    8.83   368.6   17.6      49.437
2013    5       22    18  13    8.83   368.9   17.6      49.539
2013    5       22    18  18    8.84   369.2   17.6      49.640
2013    5       22    18  23    8.84   369.5   17.5      49.741
2013    5       22    18  28    8.85   369.8   17.5      49.841
2013    5       22    18  33    8.86   370.1   17.5      49.942
2013    5       22    18  38    8.86   370.4   17.5      50.042
2013    5       22    18  43    8.87   370.8   17.5      50.143
2013    5       22    18  48    8.87   371.1   17.5      50.243
2013    5       22    18  53    8.88   371.4   17.5      50.342
2013    5       22    18  58    8.89   371.7   17.5      50.440
2013    5       22    19   3    8.89   372.0   17.5      50.536
2013    5       22    19   8    8.90   372.3   17.5      50.634
2013    5       22    19  13    8.91   372.6   17.5      50.735
2013    5       22    19  18    8.91   372.9   17.5      50.838
2013    5       22    19  23    8.92   373.3   17.4      50.942
2013    5       22    19  28    8.93   373.6   17.4      51.048
2013    5       22    19  33    8.93   373.9   17.4      51.155
2013    5       22    19  38    8.94   374.3   17.4      51.263
2013    5       22    19  43    8.95   374.7   17.4      51.374
2013    5       22    19  48    8.95   375.0   17.4      51.487
2013    5       22    19  53    8.96   375.4   17.4      51.602
2013    5       22    19  58    8.96   375.8   17.4      51.716
2013    5       22    20   3    8.97   376.2   17.4      51.829
2013    5       22    20   8    8.97   376.6   17.4      51.940
2013    5       22    20  13    8.98   376.9   17.4      52.049
2013    5       22    20  18    8.98   377.3   17.4      52.157
2013    5       22    20  23    8.98   377.7   17.4      52.264
2013    5       22    20  28    8.99   378.1   17.4      52.370
2013    5       22    20  33    8.99   378.5   17.4      52.473
2013    5       22    20  38    8.99   378.9   17.3      52.577
2013    5       22    20  43    9.00   379.3   17.3      52.679
2013    5       22    20  48    9.00   379.7   17.3      52.779
2013    5       22    20  53    9.00   380.2   17.3      52.877
2013    5       22    20  58    9.00   380.6   17.3      52.974
2013    5       22    21   3    9.00   381.0   17.3      53.070
2013    5       22    21   8    9.01   381.4   17.2      53.164
2013    5       22    21  13    9.01   381.8   17.2      53.258
2013    5       22    21  19    9.01   382.3   17.2      53.351
2013    5       22    21  24    9.01   382.7   17.2      53.443
2013    5       22    21  29    9.01   383.1   17.1      53.534
2013    5       22    21  34    9.01   383.5   17.1      53.625
2013    5       22    21  39    9.01   384.0   17.1      53.717
2013    5       22    21  44    9.01   384.4   17.1      53.809
2013    5       22    21  49    9.01   384.8   17.0      53.901
2013    5       22    21  54    9.01   385.3   17.0      53.993
2013    5       22    21  59    9.01   385.7   17.0      54.086
2013    5       22    22   4    9.01   386.1   16.9      54.179
2013    5       22    22   9    9.00   386.5   16.9      54.273
2013    5       22    22  14    9.00   386.9   16.9      54.367
2013    5       22    22  19    9.00   387.4   16.8      54.461
2013    5       22    22  24    9.00   387.8   16.8      54.555
2013    5       22    22  29    9.00   388.2   16.8      54.649
2013    5       22    22  34    8.99   388.6   16.7      54.743
2013    5       22    22  39    8.99   389.0   16.7      54.837
2013    5       22    22  44    8.99   389.5   16.7      54.930
2013    5       22    22  49    8.99   389.9   16.6      55.024
2013    5       22    22  54    8.98   390.3   16.6      55.117
2013    5       22    22  59    8.98   390.7   16.5      55.210
2013    5       22    23   4    8.98   391.1   16.5      55.303
2013    5       22    23   9    8.97   391.5   16.5      55.395
2013    5       22    23  14    8.97   391.9   16.4      55.488
2013    5       22    23  19    8.96   392.4   16.4      55.581
2013    5       22    23  24    8.96   392.8   16.3      55.675
2013    5       22    23  29    8.96   393.2   16.3      55.768
2013    5       22    23  34    8.95   393.6   16.2      55.861
2013    5       22    23  39    8.94   394.0   16.2      55.954
2013    5       22    23  45    8.94   394.4   16.1      56.047
2013    5       22    23  50    8.93   394.8   16.1      56.140
2013    5       22    23  55    8.93   395.3   16.0      56.232
2013    5       23     0   0    8.92   395.7   16.0      56.323
2013    5       23     0   5    8.91   396.1   15.9      56.412
2013    5       23     0  11    8.91   396.5   15.9      56.498
2013    5       23     0  16    8.90   396.9   15.8      56.582
2013    5       23     0  21    8.89   397.4   15.7      56.662
2013    5       23     0  26    8.89   397.8   15.7      56.739
2013    5       23     0  31    8.88   398.2   15.6      56.811
2013    5       23     0  37    8.87   398.6   15.6      56.877
2013    5       23     0  42    8.87   399.0   15.5      56.938
2013    5       23     0  47    8.86   399.4   15.4      56.995
2013    5       23     0  53    8.85   399.8   15.4      57.048
2013    5       23     0  58    8.84   400.2   15.3      57.098
2013    5       23     1   3    8.83   400.7   15.3      57.145
2013    5       23     1   9    8.83   401.1   15.2      57.190
2013    5       23     1  14    8.82   401.5   15.1      57.234
2013    5       23     1  19    8.81   401.9   15.1      57.277
2013    5       23     1  25    8.80   402.4   15.0      57.319
2013    5       23     1  30    8.79   402.8   15.0      57.360
2013    5       23     1  35    8.79   403.2   14.9      57.401
2013    5       23     1  41    8.78   403.7   14.9      57.442
2013    5       23     1  46    8.77   404.1   14.8      57.481
2013    5       23     1  51    8.76   404.6   14.7      57.520
2013    5       23     1  57    8.75   405.0   14.7      57.558
2013    5       23     2   2    8.74   405.4   14.6      57.595
2013    5       23     2   8    8.73   405.9   14.6      57.632
2013    5       23     2  13    8.72   406.4   14.5      57.668
2013    5       23     2  18    8.71   406.8   14.4      57.704
2013    5       23     2  24    8.70   407.3   14.4      57.738
2013    5       23     2  29    8.69   407.7   14.3      57.772
2013    5       23     2  35    8.68   408.2   14.3      57.804
2013    5       23     2  40    8.67   408.6   14.2      57.835
2013    5       23     2  46    8.66   409.1   14.2      57.866
2013    5       23     2  51    8.65   409.6   14.1      57.895
2013    5       23     2  57    8.64   410.0   14.0      57.922
2013    5       23     3   2    8.63   410.5   14.0      57.949
2013    5       23     3   8    8.61   410.9   13.9      57.974
2013    5       23     3  13    8.60   411.4   13.9      57.998
2013    5       23     3  19    8.59   411.9   13.8      58.021
2013    5       23     3  24    8.58   412.3   13.8      58.042
2013    5       23     3  30    8.56   412.8   13.7      58.062
2013    5       23     3  35    8.55   413.2   13.6      58.081
2013    5       23     3  41    8.54   413.7   13.6      58.099
2013    5       23     3  46    8.53   414.2   13.5      58.115
2013    5       23     3  52    8.51   414.6   13.5      58.130
2013    5       23     3  57    8.50   415.1   13.4      58.145
2013    5       23     4   3    8.48   415.6   13.4      58.158
2013    5       23     4   8    8.47   416.0   13.3      58.170
2013    5       23     4  14    8.46   416.5   13.3      58.181
2013    5       23     4  20    8.44   417.0   13.2      58.191
2013    5       23     4  25    8.43   417.4   13.2      58.201
2013    5       23     4  31    8.41   417.9   13.1      58.211
2013    5       23     4  36    8.40   418.4   13.1      58.220
2013    5       23     4  42    8.38   418.9   13.0      58.229
2013    5       23     4  48    8.36   419.4   12.9      58.238
2013    5       23     4  53    8.35   419.9   12.9      58.248
2013    5       23     4  59    8.33   420.4   12.8      58.259
2013    5       23     5   4    8.31   420.8   12.8      58.271
2013    5       23     5  10    8.30   421.3   12.7      58.285
2013    5       23     5  16    8.28   421.8   12.7      58.299
2013    5       23     5  21    8.26   422.3   12.6      58.313
2013    5       23     5  27    8.25   422.8   12.6      58.328
2013    5       23     5  32    8.23   423.3   12.5      58.344
2013    5       23     5  38    8.21   423.8   12.5      58.359
2013    5       23     5  44    8.19   424.3   12.4      58.374
2013    5       23     5  49    8.17   424.8   12.3      58.388
2013    5       23     5  55    8.15   425.3   12.3      58.401
2013    5       23     6   0    8.13   425.8   12.2      58.413
2013    5       23     6   6    8.11   426.3   12.2      58.423
2013    5       23     6  12    8.09   426.8   12.1      58.431
2013    5       23     6  17    8.07   427.3   12.1      58.438
2013    5       23     6  23    8.05   427.8   12.0      58.443
2013    5       23     6  29    8.03   428.3   11.9      58.446
2013    5       23     6  34    8.01   428.8   11.9      58.446
2013    5       23     6  40    7.99   429.3   11.8      58.443
2013    5       23     6  45    7.97   429.7   11.7      58.437
2013    5       23     6  51    7.95   430.2   11.7      58.427
2013    5       23     6  57    7.93   430.7   11.6      58.414
2013    5       23     7   2    7.91   431.2   11.6      58.399
2013    5       23     7   8    7.89   431.7   11.5      58.379
2013    5       23     7  14    7.87   432.2   11.4      58.355
2013    5       23     7  20    7.84   432.7   11.4      58.325
2013    5       23     7  25    7.82   433.2   11.3      58.289
2013    5       23     7  31    7.80   433.6   11.2      58.247
2013    5       23     7  37    7.78   434.1   11.1      58.198
2013    5       23     7  42    7.76   434.6   11.1      58.141
2013    5       23     7  48    7.74   435.0   11.0      58.073
2013    5       23     7  54    7.72   435.4   10.9      57.996
2013    5       23     7  59    7.70   435.9   10.9      57.911
2013    5       23     8   5    7.67   436.3   10.8      57.819
2013    5       23     8  11    7.65   436.8   10.8      57.721
2013    5       23     8  17    7.63   437.2   10.7      57.619
2013    5       23     8  22    7.61   437.6   10.6      57.513
2013    5       23     8  28    7.59   438.1   10.6      57.405
2013    5       23     8  34    7.57   438.5   10.5      57.296
2013    5       23     8  40    7.55   438.9   10.5      57.186
2013    5       23     8  45    7.53   439.3   10.4      57.075
2013    5       23     8  51    7.51   439.8   10.3      56.964
2013    5       23     8  57    7.49   440.2   10.3      56.851
2013    5       23     9   3    7.47   440.6   10.2      56.738
2013    5       23     9   8    7.44   441.0   10.2      56.623
2013    5       23     9  14    7.42   441.4   10.1      56.509
2013    5       23     9  20    7.40   441.9   10.0      56.394
2013    5       23     9  26    7.38   442.3   10.0      56.279
2013    5       23     9  32    7.36   442.7    9.9      56.163
2013    5       23     9  37    7.34   443.1    9.9      56.047
2013    5       23     9  43    7.32   443.5    9.8      55.930
2013    5       23     9  49    7.30   443.9    9.8      55.813
2013    5       23     9  55    7.27   444.3    9.7      55.694
2013    5       23    10   1    7.25   444.7    9.7      55.574
2013    5       23    10   6    7.23   445.1    9.6      55.454
2013    5       23    10  12    7.21   445.5    9.6      55.333
2013    5       23    10  18    7.19   445.9    9.5      55.210
2013    5       23    10  24    7.16   446.3    9.5      55.087
2013    5       23    10  30    7.14   446.7    9.4      54.962
2013    5       23    10  35    7.12   447.1    9.3      54.837
2013    5       23    10  41    7.10   447.5    9.3      54.711
2013    5       23    10  47    7.07   447.9    9.2      54.584
2013    5       23    10  53    7.05   448.2    9.2      54.456
2013    5       23    10  59    7.03   448.6    9.1      54.327
2013    5       23    11   5    7.01   449.0    9.1      54.198
2013    5       23    11  10    6.98   449.3    9.0      54.069
2013    5       23    11  16    6.96   449.7    9.0      53.940
2013    5       23    11  22    6.93   450.1    8.9      53.810
2013    5       23    11  28    6.91   450.4    8.9      53.680
2013    5       23    11  34    6.89   450.8    8.8      53.551
2013    5       23    11  40    6.86   451.1    8.8      53.423
2013    5       23    11  46    6.84   451.4    8.7      53.293
2013    5       23    11  52    6.82   451.7    8.7      53.163
2013    5       23    11  57    6.79   452.0    8.6      53.033
2013    5       23    12   3    6.77   452.4    8.6      52.903
2013    5       23    12   9    6.74   452.7    8.6      52.772
2013    5       23    12  15    6.72   453.0    8.5      52.642
2013    5       23    12  21    6.70   453.3    8.5      52.511
2013    5       23    12  27    6.67   453.6    8.4      52.380
2013    5       23    12  33    6.65   453.8    8.4      52.250
2013    5       23    12  39    6.62   454.1    8.3      52.118
2013    5       23    12  45    6.60   454.4    8.3      51.987
2013    5       23    12  51    6.58   454.7    8.2      51.855
2013    5       23    12  57    6.55   455.0    8.2      51.724
2013    5       23    13   3    6.53   455.2    8.2      51.592
2013    5       23    13   9    6.51   455.5    8.1      51.459
2013    5       23    13  15    6.48   455.7    8.1      51.327
2013    5       23    13  21    6.46   456.0    8.0      51.195
2013    5       23    13  27    6.44   456.2    8.0      51.062
2013    5       23    13  33    6.42   456.5    8.0      50.929
2013    5       23    13  39    6.39   456.7    7.9      50.796
2013    5       23    13  45    6.37   456.9    7.9      50.664
2013    5       23    13  51    6.35   457.2    7.9      50.531
2013    5       23    13  57    6.33   457.4    7.8      50.398
2013    5       23    14   3    6.31   457.6    7.8      50.265
2013    5       23    14  10    6.28   457.8    7.8      50.133
2013    5       23    14  16    6.26   458.0    7.7      50.001
2013    5       23    14  22    6.24   458.2    7.7      49.869
2013    5       23    14  28    6.22   458.4    7.7      49.738
2013    5       23    14  34    6.20   458.5    7.6      49.608
2013    5       23    14  40    6.18   458.7    7.6      49.478
2013    5       23    14  46    6.16   458.9    7.6      49.348
2013    5       23    14  52    6.14   459.1    7.5      49.219
2013    5       23    14  59    6.12   459.2    7.5      49.092
2013    5       23    15   5    6.10   459.4    7.5      48.965
2013    5       23    15  11    6.08   459.5    7.5      48.838
2013    5       23    15  17    6.06   459.6    7.4      48.713
2013    5       23    15  23    6.05   459.8    7.4      48.589
2013    5       23    15  30    6.03   459.9    7.4      48.465
2013    5       23    15  36    6.01   460.0    7.4      48.343
2013    5       23    15  42    5.99   460.2    7.3      48.222
2013    5       23    15  48    5.97   460.3    7.3      48.101
2013    5       23    15  55    5.95   460.4    7.3      47.982
2013    5       23    16   1    5.94   460.5    7.3      47.864
2013    5       23    16   7    5.92   460.6    7.2      47.747
2013    5       23    16  13    5.90   460.7    7.2      47.631
2013    5       23    16  20    5.89   460.8    7.2      47.515
2013    5       23    16  26    5.87   460.9    7.2      47.401
2013    5       23    16  32    5.85   461.0    7.1      47.287
2013    5       23    16  38    5.83   461.1    7.1      47.174
2013    5       23    16  45    5.82   461.2    7.1      47.062
2013    5       23    16  51    5.80   461.3    7.1      46.951
2013    5       23    16  57    5.78   461.4    7.1      46.841
2013    5       23    17   3    5.77   461.6    7.0      46.731
2013    5       23    17  10    5.75   461.7    7.0      46.621
2013    5       23    17  16    5.73   461.8    7.0      46.512
2013    5       23    17  22    5.72   461.9    7.0      46.401
2013    5       23    17  29    5.70   462.0    7.0      46.293
2013    5       23    17  35    5.69   462.1    6.9      46.183
2013    5       23    17  41    5.67   462.2    6.9      46.074
2013    5       23    17  48    5.65   462.3    6.9      45.965
2013    5       23    17  54    5.64   462.5    6.9      45.857
2013    5       23    18   0    5.62   462.6    6.8      45.749
2013    5       23    18   6    5.61   462.7    6.8      45.642
2013    5       23    18  13    5.59   462.8    6.8      45.532
2013    5       23    18  19    5.57   463.0    6.8      45.425
2013    5       23    18  25    5.56   463.1    6.8      45.317
2013    5       23    18  32    5.54   463.2    6.7      45.210
2013    5       23    18  38    5.53   463.4    6.7      45.103
2013    5       23    18  44    5.51   463.5    6.7      44.998
2013    5       23    18  51    5.50   463.6    6.7      44.894
2013    5       23    18  57    5.48   463.7    6.6      44.794
2013    5       23    19   3    5.47   463.8    6.6      44.693
2013    5       23    19   9    5.45   463.9    6.6      44.594
2013    5       23    19  16    5.44   464.0    6.6      44.495
2013    5       23    19  22    5.42   464.0    6.6      44.399
2013    5       23    19  28    5.41   464.1    6.5      44.302
2013    5       23    19  34    5.39   464.2    6.5      44.209
2013    5       23    19  41    5.38   464.3    6.5      44.115
2013    5       23    19  47    5.37   464.4    6.5      44.024
2013    5       23    19  53    5.35   464.4    6.5      43.932
2013    5       23    20   0    5.34   464.5    6.4      43.843
2013    5       23    20   6    5.33   464.6    6.4      43.753
2013    5       23    20  12    5.31   464.6    6.4      43.665
2013    5       23    20  18    5.30   464.7    6.4      43.577
2013    5       23    20  25    5.29   464.7    6.4      43.491
2013    5       23    20  31    5.27   464.8    6.4      43.404
2013    5       23    20  37    5.26   464.9    6.3      43.319
2013    5       23    20  43    5.25   464.9    6.3      43.232
2013    5       23    20  50    5.24   465.0    6.3      43.148
2013    5       23    20  56    5.22   465.0    6.3      43.062
2013    5       23    21   2    5.21   465.1    6.3      42.977
2013    5       23    21   8    5.20   465.1    6.3      42.891
2013    5       23    21  15    5.19   465.2    6.2      42.806
2013    5       23    21  21    5.18   465.2    6.2      42.720
2013    5       23    21  27    5.17   465.2    6.2      42.634
2013    5       23    21  34    5.15   465.3    6.2      42.547
2013    5       23    21  40    5.14   465.3    6.2      42.461
2013    5       23    21  46    5.13   465.4    6.2      42.374
2013    5       23    21  52    5.12   465.4    6.1      42.287
2013    5       23    21  59    5.11   465.4    6.1      42.199
2013    5       23    22   5    5.10   465.4    6.1      42.112
2013    5       23    22  11    5.09   465.5    6.1      42.024
2013    5       23    22  17    5.08   465.5    6.1      41.936
2013    5       23    22  24    5.07   465.5    6.1      41.847
2013    5       23    22  30    5.06   465.5    6.1      41.760
2013    5       23    22  36    5.05   465.5    6.1      41.671
2013    5       23    22  42    5.04   465.5    6.0      41.584
2013    5       23    22  49    5.03   465.5    6.0      41.497
2013    5       23    22  55    5.02   465.5    6.0      41.411
2013    5       23    23   1    5.01   465.5    6.0      41.325
2013    5       23    23   7    5.00   465.5    6.0      41.241
2013    5       23    23  14    4.99   465.5    6.0      41.157
2013    5       23    23  20    4.98   465.5    6.0      41.074
2013    5       23    23  26    4.97   465.5    6.0      40.992
2013    5       23    23  32    4.96   465.5    5.9      40.912
2013    5       23    23  39    4.95   465.5    5.9      40.832
2013    5       23    23  45    4.94   465.5    5.9      40.754
2013    5       23    23  51    4.93   465.5    5.9      40.677
2013    5       23    23  57    4.92   465.5    5.9      40.601
2013    5       24     0   4    4.92   465.4    5.9      40.526
2013    5       24     0  10    4.91   465.4    5.9      40.454
2013    5       24     0  16    4.90   465.4    5.9      40.381
2013    5       24     0  23    4.89   465.4    5.9      40.311
2013    5       24     0  29    4.88   465.3    5.8      40.241
2013    5       24     0  35    4.87   465.3    5.8      40.172
2013    5       24     0  42    4.86   465.3    5.8      40.103
2013    5       24     0  48    4.85   465.2    5.8      40.035
2013    5       24     0  54    4.85   465.2    5.8      39.967
2013    5       24     1   1    4.84   465.2    5.8      39.900
2013    5       24     1   7    4.83   465.1    5.8      39.832
2013    5       24     1  13    4.82   465.1    5.8      39.765
2013    5       24     1  19    4.81   465.1    5.8      39.697
2013    5       24     1  26    4.81   465.0    5.8      39.630
2013    5       24     1  32    4.80   465.0    5.7      39.563
2013    5       24     1  38    4.79   465.0    5.7      39.497
2013    5       24     1  45    4.78   464.9    5.7      39.430
2013    5       24     1  51    4.77   464.9    5.7      39.365
2013    5       24     1  57    4.77   464.8    5.7      39.298
2013    5       24     2   3    4.76   464.8    5.7      39.234
2013    5       24     2  10    4.75   464.7    5.7      39.168
2013    5       24     2  16    4.74   464.7    5.7      39.104
2013    5       24     2  22    4.74   464.6    5.7      39.040
2013    5       24     2  29    4.73   464.6    5.7      38.977
2013    5       24     2  35    4.72   464.5    5.6      38.913
2013    5       24     2  41    4.72   464.5    5.6      38.851
2013    5       24     2  47    4.71   464.4    5.6      38.789
2013    5       24     2  54    4.70   464.4    5.6      38.728
2013    5       24     3   0    4.70   464.3    5.6      38.667
2013    5       24     3   6    4.69   464.2    5.6      38.607
2013    5       24     3  12    4.68   464.2    5.6      38.547
2013    5       24     3  19    4.68   464.1    5.6      38.488
2013    5       24     3  25    4.67   464.0    5.6      38.429
2013    5       24     3  31    4.66   464.0    5.6      38.372
2013    5       24     3  37    4.66   463.9    5.6      38.314
2013    5       24     3  44    4.65   463.9    5.5      38.257
2013    5       24     3  50    4.65   463.8    5.5      38.200
2013    5       24     3  56    4.64   463.7    5.5      38.144
2013    5       24     4   2    4.63   463.7    5.5      38.086
2013    5       24     4   9    4.63   463.6    5.5      38.030
2013    5       24     4  15    4.62   463.5    5.5      37.973
2013    5       24     4  21    4.61   463.4    5.5      37.916
2013    5       24     4  27    4.61   463.4    5.5      37.858
2013    5       24     4  34    4.60   463.3    5.5      37.800
2013    5       24     4  40    4.60   463.2    5.5      37.741
2013    5       24     4  46    4.59   463.1    5.5      37.683
2013    5       24     4  52    4.59   463.1    5.5      37.623
2013    5       24     4  59    4.58   463.0    5.5      37.564
2013    5       24     5   5    4.57   462.9    5.4      37.503
2013    5       24     5  11    4.57   462.8    5.4      37.442
2013    5       24     5  17    4.56   462.7    5.4      37.381
2013    5       24     5  24    4.56   462.6    5.4      37.319
2013    5       24     5  30    4.55   462.5    5.4      37.257
2013    5       24     5  36    4.55   462.5    5.4      37.195
2013    5       24     5  42    4.54   462.4    5.4      37.133
2013    5       24     5  49    4.54   462.3    5.4      37.071
2013    5       24     5  55    4.53   462.2    5.4      37.009
2013    5       24     6   1    4.53   462.1    5.4      36.949
2013    5       24     6   7    4.52   462.0    5.4      36.889
2013    5       24     6  14    4.52   461.8    5.4      36.830
2013    5       24     6  20    4.51   461.7    5.4      36.772
2013    5       24     6  26    4.51   461.6    5.4      36.716
2013    5       24     6  33    4.50   461.5    5.4      36.660
2013    5       24     6  39    4.50   461.4    5.4      36.607
2013    5       24     6  45    4.49   461.3    5.4      36.554
2013    5       24     6  51    4.49   461.2    5.4      36.504
2013    5       24     6  58    4.48   461.1    5.4      36.455
2013    5       24     7   4    4.48   460.9    5.4      36.408
2013    5       24     7  10    4.47   460.8    5.4      36.362
2013    5       24     7  16    4.47   460.7    5.4      36.319
2013    5       24     7  23    4.46   460.6    5.4      36.277
2013    5       24     7  29    4.46   460.4    5.4      36.237
2013    5       24     7  35    4.46   460.3    5.4      36.199
2013    5       24     7  42    4.45   460.2    5.4      36.162
2013    5       24     7  48    4.45   460.0    5.4      36.126
2013    5       24     7  54    4.44   459.9    5.4      36.091
2013    5       24     8   1    4.44   459.8    5.4      36.057
2013    5       24     8   7    4.44   459.6    5.3      36.024
2013    5       24     8  13    4.43   459.5    5.3      35.992
2013    5       24     8  19    4.43   459.4    5.3      35.960
2013    5       24     8  26    4.42   459.3    5.3      35.929
2013    5       24     8  32    4.42   459.1    5.3      35.898
2013    5       24     8  38    4.42   459.0    5.3      35.868
2013    5       24     8  45    4.41   458.9    5.3      35.838
2013    5       24     8  51    4.41   458.7    5.3      35.807
2013    5       24     8  57    4.41   458.6    5.3      35.775
2013    5       24     9   4    4.40   458.5    5.3      35.743
2013    5       24     9  10    4.40   458.4    5.3      35.710
2013    5       24     9  16    4.40   458.2    5.3      35.677
2013    5       24     9  22    4.39   458.1    5.3      35.643
2013    5       24     9  29    4.39   458.0    5.3      35.609
2013    5       24     9  35    4.39   457.9    5.3      35.574
2013    5       24     9  41    4.38   457.7    5.3      35.539
2013    5       24     9  47    4.38   457.6    5.3      35.503
2013    5       24     9  54    4.38   457.5    5.3      35.467
2013    5       24    10   0    4.37   457.4    5.3      35.431
2013    5       24    10   6    4.37   457.2    5.3      35.393
2013    5       24    10  12    4.37   457.1    5.3      35.356
2013    5       24    10  19    4.37   457.0    5.3      35.319
2013    5       24    10  25    4.36   456.9    5.3      35.281
2013    5       24    10  31    4.36   456.8    5.3      35.242
2013    5       24    10  37    4.36   456.6    5.3      35.204
2013    5       24    10  44    4.35   456.5    5.3      35.165
2013    5       24    10  50    4.35   456.4    5.3      35.126
2013    5       24    10  56    4.35   456.2    5.3      35.087
2013    5       24    11   2    4.34   456.1    5.3      35.047
2013    5       24    11   9    4.34   456.0    5.3      35.007
2013    5       24    11  15    4.34   455.9    5.3      34.968
2013    5       24    11  21    4.34   455.7    5.3      34.927
2013    5       24    11  27    4.33   455.6    5.3      34.887
2013    5       24    11  34    4.33   455.5    5.3      34.845
2013    5       24    11  40    4.33   455.4    5.3      34.805
2013    5       24    11  46    4.32   455.2    5.3      34.763
2013    5       24    11  52    4.32   455.1    5.3      34.722
2013    5       24    11  59    4.32   455.0    5.3      34.680
2013    5       24    12   5    4.32   454.8    5.3      34.639
2013    5       24    12  11    4.31   454.7    5.3      34.596
2013    5       24    12  17    4.31   454.5    5.3      34.555
2013    5       24    12  24    4.31   454.4    5.3      34.512
2013    5       24    12  30    4.30   454.3    5.3      34.471
2013    5       24    12  36    4.30   454.1    5.3      34.428
2013    5       24    12  42    4.30   454.0    5.2      34.387
2013    5       24    12  49    4.30   453.9    5.2      34.344
2013    5       24    12  55    4.29   453.7    5.2      34.303
2013    5       24    13   1    4.29   453.6    5.2      34.261
2013    5       24    13   7    4.29   453.4    5.2      34.220
2013    5       24    13  14    4.29   453.3    5.2      34.178
2013    5       24    13  20    4.28   453.1    5.2      34.138
2013    5       24    13  26    4.28   453.0    5.2      34.097
2013    5       24    13  32    4.28   452.9    5.2      34.057
2013    5       24    13  39    4.28   452.7    5.2      34.017
2013    5       24    13  45    4.27   452.6    5.2      33.978
2013    5       24    13  51    4.27   452.4    5.2      33.939
2013    5       24    13  57    4.27   452.3    5.2      33.900
2013    5       24    14   4    4.27   452.1    5.2      33.862
2013    5       24    14  10    4.26   452.0    5.2      33.825
2013    5       24    14  16    4.26   451.8    5.2      33.788
2013    5       24    14  23    4.26   451.7    5.2      33.752
2013    5       24    14  29    4.26   451.5    5.2      33.717
2013    5       24    14  35    4.26   451.4    5.2      33.682
2013    5       24    14  41    4.25   451.2    5.2      33.648
2013    5       24    14  48    4.25   451.1    5.2      33.615
2013    5       24    14  54    4.25   450.9    5.2      33.582
2013    5       24    15   0    4.25   450.8    5.2      33.551
2013    5       24    15   7    4.25   450.6    5.2      33.519
2013    5       24    15  13    4.24   450.5    5.2      33.490
2013    5       24    15  19    4.24   450.3    5.2      33.461
2013    5       24    15  26    4.24   450.2    5.2      33.434
2013    5       24    15  32    4.24   450.0    5.2      33.408
2013    5       24    15  38    4.24   449.9    5.2      33.383
2013    5       24    15  44    4.24   449.7    5.2      33.358
2013    5       24    15  51    4.23   449.6    5.2      33.335
2013    5       24    15  57    4.23   449.4    5.2      33.310
2013    5       24    16   3    4.23   449.3    5.2      33.286
2013    5       24    16  10    4.23   449.1    5.2      33.262
2013    5       24    16  16    4.23   449.0    5.2      33.238
2013    5       24    16  22    4.23   448.8    5.2      33.213
2013    5       24    16  28    4.23   448.7    5.2      33.189
2013    5       24    16  35    4.22   448.5    5.2      33.164
2013    5       24    16  41    4.22   448.4    5.2      33.139
2013    5       24    16  47    4.22   448.2    5.2      33.114
2013    5       24    16  53    4.22   448.1    5.2      33.090
2013    5       24    17   0    4.22   447.9    5.2      33.064
2013    5       24    17   6    4.22   447.8    5.2      33.040
2013    5       24    17  12    4.21   447.6    5.2      33.014
2013    5       24    17  18    4.21   447.5    5.2      32.989
2013    5       24    17  25    4.21   447.3    5.2      32.964
2013    5       24    17  31    4.21   447.2    5.2      32.939
2013    5       24    17  37    4.21   447.0    5.2      32.914
2013    5       24    17  43    4.21   446.9    5.2      32.890
2013    5       24    17  50    4.21   446.7    5.2      32.865
2013    5       24    17  56    4.21   446.6    5.2      32.840
2013    5       24    18   2    4.20   446.4    5.2      32.815
2013    5       24    18   8    4.20   446.3    5.2      32.791
2013    5       24    18  15    4.20   446.1    5.2      32.766
2013    5       24    18  21    4.20   446.0    5.2      32.742
2013    5       24    18  27    4.20   445.8    5.2      32.717
2013    5       24    18  33    4.20   445.7    5.2      32.693
2013    5       24    18  40    4.20   445.5    5.2      32.668
2013    5       24    18  46    4.19   445.4    5.2      32.644
2013    5       24    18  52    4.19   445.2    5.2      32.619
2013    5       24    18  58    4.19   445.1    5.2      32.595
2013    5       24    19   5    4.19   444.9    5.2      32.571
2013    5       24    19  11    4.19   444.8    5.2      32.547
2013    5       24    19  17    4.19   444.6    5.3      32.522
2013    5       24    19  23    4.19   444.5    5.3      32.498
2013    5       24    19  29    4.19   444.3    5.3      32.474
2013    5       24    19  36    4.19   444.2    5.3      32.451
2013    5       24    19  42    4.18   444.0    5.3      32.427
2013    5       24    19  48    4.18   443.9    5.3      32.404
2013    5       24    19  54    4.18   443.7    5.3      32.380
2013    5       24    20   1    4.18   443.6    5.3      32.356
2013    5       24    20   7    4.18   443.4    5.3      32.333
2013    5       24    20  13    4.18   443.2    5.3      32.309
2013    5       24    20  19    4.18   443.1    5.3      32.285
2013    5       24    20  26    4.18   442.9    5.3      32.261
2013    5       24    20  32    4.18   442.8    5.3      32.236
2013    5       24    20  38    4.17   442.6    5.3      32.212
2013    5       24    20  44    4.17   442.5    5.3      32.186
2013    5       24    20  51    4.17   442.3    5.3      32.161
2013    5       24    20  57    4.17   442.2    5.3      32.135
2013    5       24    21   3    4.17   442.0    5.3      32.109
2013    5       24    21   9    4.17   441.8    5.3      32.083
2013    5       24    21  16    4.17   441.7    5.3      32.057
2013    5       24    21  22    4.17   441.5    5.3      32.029
2013    5       24    21  28    4.17   441.4    5.3      32.002
2013    5       24    21  35    4.17   441.2    5.3      31.975
2013    5       24    21  41    4.16   441.1    5.3      31.947
2013    5       24    21  47    4.16   440.9    5.3      31.919
2013    5       24    21  53    4.16   440.7    5.3      31.891
2013    5       24    22   0    4.16   440.6    5.3      31.862
2013    5       24    22   6    4.16   440.4    5.3      31.833
2013    5       24    22  12    4.16   440.3    5.3      31.804
2013    5       24    22  19    4.16   440.1    5.3      31.775
2013    5       24    22  25    4.16   439.9    5.3      31.745
2013    5       24    22  31    4.16   439.8    5.3      31.716
2013    5       24    22  38    4.16   439.6    5.3      31.686
2013    5       24    22  44    4.16   439.5    5.3      31.657
2013    5       24    22  50    4.15   439.3    5.3      31.627
2013    5       24    22  56    4.15   439.1    5.3      31.597
2013    5       24    23   3    4.15   439.0    5.3      31.568
2013    5       24    23   9    4.15   438.8    5.3      31.538
2013    5       24    23  15    4.15   438.6    5.3      31.509
2013    5       24    23  22    4.15   438.5    5.3      31.480
2013    5       24    23  28    4.15   438.3    5.3      31.451
2013    5       24    23  34    4.15   438.1    5.3      31.422
2013    5       24    23  40    4.15   438.0    5.3      31.394
2013    5       24    23  47    4.15   437.8    5.3      31.365
2013    5       24    23  53    4.15   437.6    5.3      31.337
2013    5       24    23  59    4.14   437.5    5.3      31.310
2013    5       25     0   5    4.14   437.3    5.3      31.282
2013    5       25     0  12    4.14   437.1    5.3      31.255
2013    5       25     0  18    4.14   437.0    5.3      31.228
2013    5       25     0  24    4.14   436.8    5.3      31.202
2013    5       25     0  30    4.14   436.6    5.3      31.176
2013    5       25     0  37    4.14   436.5    5.3      31.150
2013    5       25     0  43    4.14   436.3    5.3      31.125
2013    5       25     0  49    4.14   436.1    5.3      31.100
2013    5       25     0  55    4.14   436.0    5.3      31.075
2013    5       25     1   2    4.14   435.8    5.3      31.051
2013    5       25     1   8    4.14   435.6    5.3      31.027
2013    5       25     1  14    4.14   435.5    5.3      31.003
2013    5       25     1  20    4.14   435.3    5.3      30.980
2013    5       25     1  26    4.14   435.1    5.3      30.957
2013    5       25     1  33    4.14   435.0    5.3      30.934
2013    5       25     1  39    4.13   434.8    5.3      30.913
2013    5       25     1  45    4.13   434.6    5.3      30.891
2013    5       25     1  51    4.13   434.4    5.3      30.869
2013    5       25     1  58    4.13   434.3    5.3      30.848
2013    5       25     2   4    4.13   434.1    5.3      30.828
2013    5       25     2  10    4.13   433.9    5.3      30.808
2013    5       25     2  16    4.13   433.7    5.3      30.788
2013    5       25     2  23    4.13   433.6    5.3      30.769
2013    5       25     2  29    4.13   433.4    5.3      30.750
2013    5       25     2  35    4.13   433.2    5.3      30.732
2013    5       25     2  41    4.13   433.1    5.3      30.714
2013    5       25     2  48    4.13   432.9    5.3      30.697
2013    5       25     2  54    4.13   432.7    5.3      30.680
2013    5       25     3   0    4.13   432.5    5.3      30.664
2013    5       25     3   6    4.13   432.3    5.3      30.648
2013    5       25     3  13    4.13   432.2    5.3      30.633
2013    5       25     3  19    4.13   432.0    5.3      30.619
2013    5       25     3  25    4.13   431.8    5.3      30.605
2013    5       25     3  31    4.13   431.6    5.3      30.593
2013    5       25     3  37    4.13   431.5    5.3      30.580
2013    5       25     3  44    4.13   431.3    5.3      30.569
2013    5       25     3  50    4.13   431.1    5.4      30.558
2013    5       25     3  56    4.13   430.9    5.4      30.548
2013    5       25     4   2    4.13   430.8    5.4      30.538
2013    5       25     4   9    4.13   430.6    5.4      30.529
2013    5       25     4  15    4.13   430.4    5.4      30.521
2013    5       25     4  21    4.14   430.3    5.4      30.513
2013    5       25     4  28    4.14   430.1    5.4      30.506
2013    5       25     4  34    4.14   429.9    5.4      30.499
2013    5       25     4  40    4.14   429.8    5.4      30.492
2013    5       25     4  46    4.14   429.6    5.4      30.487
2013    5       25     4  53    4.14   429.4    5.4      30.481
2013    5       25     4  59    4.14   429.3    5.4      30.476
2013    5       25     5   5    4.14   429.1    5.4      30.471
2013    5       25     5  11    4.14   428.9    5.4      30.467
2013    5       25     5  18    4.14   428.8    5.4      30.463
2013    5       25     5  24    4.14   428.6    5.4      30.459
2013    5       25     5  30    4.14   428.4    5.4      30.456
2013    5       25     5  37    4.14   428.3    5.5      30.452
2013    5       25     5  43    4.15   428.1    5.5      30.449
2013    5       25     5  49    4.15   428.0    5.5      30.446
2013    5       25     5  56    4.15   427.8    5.5      30.443
2013    5       25     6   2    4.15   427.6    5.5      30.440
2013    5       25     6   8    4.15   427.5    5.5      30.437
2013    5       25     6  14    4.15   427.3    5.5      30.434
2013    5       25     6  21    4.15   427.2    5.5      30.431
2013    5       25     6  27    4.15   427.0    5.5      30.428
2013    5       25     6  33    4.15   426.9    5.5      30.425
2013    5       25     6  39    4.15   426.7    5.5      30.422
2013    5       25     6  46    4.16   426.5    5.5      30.420
2013    5       25     6  52    4.16   426.4    5.5      30.417
2013    5       25     6  58    4.16   426.2    5.5      30.414
2013    5       25     7   5    4.16   426.1    5.5      30.412
2013    5       25     7  11    4.16   425.9    5.5      30.409
2013    5       25     7  17    4.16   425.8    5.6      30.407
2013    5       25     7  23    4.16   425.6    5.6      30.405
2013    5       25     7  30    4.16   425.5    5.6      30.403
2013    5       25     7  36    4.17   425.3    5.6      30.401
2013    5       25     7  42    4.17   425.2    5.6      30.400
2013    5       25     7  48    4.17   425.1    5.6      30.398
2013    5       25     7  54    4.17   424.9    5.6      30.397
2013    5       25     8   1    4.17   424.8    5.6      30.397
2013    5       25     8   7    4.17   424.6    5.6      30.396
2013    5       25     8  13    4.17   424.5    5.6      30.396
2013    5       25     8  19    4.18   424.3    5.6      30.396
2013    5       25     8  26    4.18   424.2    5.6      30.397
2013    5       25     8  32    4.18   424.1    5.6      30.398
2013    5       25     8  38    4.18   423.9    5.6      30.400
2013    5       25     8  44    4.18   423.8    5.7      30.401
2013    5       25     8  51    4.19   423.7    5.7      30.404
2013    5       25     8  57    4.19   423.5    5.7      30.407
2013    5       25     9   3    4.19   423.4    5.7      30.410
2013    5       25     9   9    4.19   423.3    5.7      30.414
2013    5       25     9  15    4.19   423.1    5.7      30.418
2013    5       25     9  22    4.19   423.0    5.7      30.423
2013    5       25     9  28    4.20   422.9    5.7      30.428
2013    5       25     9  34    4.20   422.8    5.7      30.434
2013    5       25     9  40    4.20   422.6    5.7      30.440
2013    5       25     9  47    4.20   422.5    5.7      30.447
2013    5       25     9  53    4.20   422.4    5.7      30.454
2013    5       25     9  59    4.21   422.3    5.7      30.462
2013    5       25    10   5    4.21   422.2    5.8      30.470
2013    5       25    10  11    4.21   422.0    5.8      30.479
2013    5       25    10  18    4.21   421.9    5.8      30.488
2013    5       25    10  24    4.22   421.8    5.8      30.497
2013    5       25    10  30    4.22   421.7    5.8      30.507
2013    5       25    10  36    4.22   421.6    5.8      30.517
2013    5       25    10  43    4.22   421.5    5.8      30.528
2013    5       25    10  49    4.22   421.4    5.8      30.539
2013    5       25    10  55    4.23   421.2    5.8      30.550
2013    5       25    11   1    4.23   421.1    5.8      30.561
2013    5       25    11   8    4.23   421.0    5.8      30.573
2013    5       25    11  14    4.23   420.9    5.9      30.585
2013    5       25    11  20    4.23   420.8    5.9      30.597
2013    5       25    11  26    4.24   420.7    5.9      30.609
2013    5       25    11  33    4.24   420.6    5.9      30.621
2013    5       25    11  39    4.24   420.5    5.9      30.634
2013    5       25    11  45    4.24   420.4    5.9      30.647
2013    5       25    11  51    4.25   420.3    5.9      30.660
2013    5       25    11  58    4.25   420.2    5.9      30.673
2013    5       25    12   4    4.25   420.0    5.9      30.687
2013    5       25    12  10    4.25   419.9    5.9      30.700
2013    5       25    12  17    4.25   419.8    6.0      30.714
2013    5       25    12  23    4.26   419.7    6.0      30.728
2013    5       25    12  29    4.26   419.6    6.0      30.742
2013    5       25    12  36    4.26   419.5    6.0      30.756
2013    5       25    12  42    4.26   419.4    6.0      30.770
2013    5       25    12  48    4.27   419.3    6.0      30.785
2013    5       25    12  54    4.27   419.3    6.0      30.800
2013    5       25    13   1    4.27   419.2    6.0      30.814
2013    5       25    13   7    4.27   419.1    6.0      30.830
2013    5       25    13  13    4.28   419.0    6.1      30.845
2013    5       25    13  20    4.28   418.9    6.1      30.861
2013    5       25    13  26    4.28   418.8    6.1      30.877
2013    5       25    13  32    4.28   418.7    6.1      30.893
2013    5       25    13  38    4.28   418.6    6.1      30.910
2013    5       25    13  45    4.29   418.5    6.1      30.927
2013    5       25    13  51    4.29   418.5    6.1      30.944
2013    5       25    13  57    4.29   418.4    6.1      30.962
2013    5       25    14   3    4.29   418.3    6.1      30.980
2013    5       25    14  10    4.30   418.2    6.1      30.998
2013    5       25    14  16    4.30   418.1    6.2      31.017
2013    5       25    14  22    4.30   418.1    6.2      31.036
2013    5       25    14  28    4.31   418.0    6.2      31.056
2013    5       25    14  35    4.31   417.9    6.2      31.075
2013    5       25    14  41    4.31   417.8    6.2      31.095
2013    5       25    14  47    4.31   417.8    6.2      31.116
2013    5       25    14  53    4.32   417.7    6.2      31.137
2013    5       25    15   0    4.32   417.6    6.2      31.157
2013    5       25    15   6    4.32   417.6    6.2      31.179
2013    5       25    15  12    4.32   417.5    6.3      31.200
2013    5       25    15  18    4.33   417.4    6.3      31.222
2013    5       25    15  24    4.33   417.4    6.3      31.243
2013    5       25    15  31    4.33   417.3    6.3      31.265
2013    5       25    15  37    4.34   417.3    6.3      31.287
2013    5       25    15  43    4.34   417.2    6.3      31.309
2013    5       25    15  49    4.34   417.1    6.3      31.331
2013    5       25    15  56    4.34   417.1    6.3      31.353
2013    5       25    16   2    4.35   417.0    6.3      31.375
2013    5       25    16   8    4.35   417.0    6.3      31.397
2013    5       25    16  14    4.35   416.9    6.4      31.418
2013    5       25    16  20    4.35   416.9    6.4      31.440
2013    5       25    16  27    4.36   416.8    6.4      31.461
2013    5       25    16  33    4.36   416.7    6.4      31.482
2013    5       25    16  39    4.36   416.7    6.4      31.503
2013    5       25    16  45    4.37   416.6    6.4      31.524
2013    5       25    16  52    4.37   416.5    6.4      31.544
2013    5       25    16  58    4.37   416.5    6.4      31.564
2013    5       25    17   4    4.37   416.4    6.4      31.584
2013    5       25    17  10    4.38   416.4    6.4      31.604
2013    5       25    17  16    4.38   416.3    6.5      31.623
2013    5       25    17  23    4.38   416.2    6.5      31.642
2013    5       25    17  29    4.38   416.2    6.5      31.660
2013    5       25    17  35    4.39   416.1    6.5      31.679
2013    5       25    17  41    4.39   416.0    6.5      31.697
2013    5       25    17  48    4.39   416.0    6.5      31.715
2013    5       25    17  54    4.40   415.9    6.5      31.732
2013    5       25    18   0    4.40   415.8    6.5      31.750
2013    5       25    18   6    4.40   415.8    6.5      31.767
2013    5       25    18  13    4.40   415.7    6.5      31.784
2013    5       25    18  19    4.41   415.6    6.5      31.800
2013    5       25    18  25    4.41   415.6    6.6      31.816
2013    5       25    18  31    4.41   415.5    6.6      31.833
2013    5       25    18  38    4.41   415.4    6.6      31.849
2013    5       25    18  44    4.42   415.4    6.6      31.864
2013    5       25    18  50    4.42   415.3    6.6      31.880
2013    5       25    18  56    4.42   415.2    6.6      31.896
2013    5       25    19   3    4.42   415.2    6.6      31.911
2013    5       25    19   9    4.43   415.1    6.6      31.927
2013    5       25    19  15    4.43   415.0    6.6      31.942
2013    5       25    19  21    4.43   415.0    6.6      31.958
2013    5       25    19  28    4.44   414.9    6.6      31.973
2013    5       25    19  34    4.44   414.8    6.6      31.988
2013    5       25    19  40    4.44   414.8    6.7      32.003
2013    5       25    19  47    4.45   414.7    6.7      32.018
2013    5       25    19  53    4.45   414.7    6.7      32.033
2013    5       25    19  59    4.45   414.6    6.7      32.047
2013    5       25    20   6    4.45   414.5    6.7      32.062
2013    5       25    20  12    4.46   414.5    6.7      32.077
2013    5       25    20  18    4.46   414.4    6.7      32.091
2013    5       25    20  24    4.46   414.4    6.7      32.105
2013    5       25    20  31    4.47   414.3    6.7      32.120
2013    5       25    20  37    4.47   414.3    6.7      32.135
2013    5       25    20  43    4.47   414.2    6.7      32.150
2013    5       25    20  49    4.48   414.2    6.7      32.165
2013    5       25    20  56    4.48   414.1    6.7      32.179
2013    5       25    21   2    4.48   414.1    6.8      32.194
2013    5       25    21   8    4.49   414.0    6.8      32.209
2013    5       25    21  15    4.49   414.0    6.8      32.224
2013    5       25    21  21    4.50   413.9    6.8      32.238
2013    5       25    21  27    4.50   413.9    6.8      32.251
2013    5       25    21  33    4.50   413.9    6.8      32.264
2013    5       25    21  40    4.51   413.8    6.8      32.277
2013    5       25    21  46    4.51   413.8    6.8      32.289
2013    5       25    21  52    4.52   413.7    6.8      32.300
2013    5       25    21  58    4.52   413.7    6.8      32.311
2013    5       25    22   4    4.52   413.6    6.8      32.322
2013    5       25    22  11    4.53   413.6    6.8      32.332
2013    5       25    22  17    4.53   413.6    6.8      32.341
2013    5       25    22  23    4.54   413.5    6.8      32.350
2013    5       25    22  29    4.54   413.5    6.8      32.358
2013    5       25    22  36    4.54   413.5    6.9      32.365
2013    5       25    22  42    4.55   413.4    6.9      32.372
2013    5       25    22  48    4.55   413.4    6.9      32.378
2013    5       25    22  54    4.56   413.3    6.9      32.383
2013    5       25    23   0    4.56   413.3    6.9      32.388
2013    5       25    23   7    4.57   413.3    6.9      32.393
2013    5       25    23  13    4.57   413.2    6.9      32.396
2013    5       25    23  19    4.58   413.2    6.9      32.399
2013    5       25    23  25    4.58   413.1    6.9      32.402
2013    5       25    23  31    4.59   413.1    6.9      32.404
2013    5       25    23  38    4.59   413.1    6.9      32.406
2013    5       25    23  44    4.60   413.0    6.9      32.407
2013    5       25    23  50    4.60   413.0    6.9      32.408
2013    5       25    23  56    4.61   413.0    6.9      32.408
2013    5       26     0   3    4.61   412.9    6.9      32.408
2013    5       26     0   9    4.62   412.9    6.9      32.408
2013    5       26     0  15    4.62   412.9    6.9      32.407
2013    5       26     0  21    4.63   412.8    6.9      32.406
2013    5       26     0  27    4.64   412.8    6.9      32.406
2013    5       26     0  34    4.64   412.7    6.9      32.404
2013    5       26     0  40    4.65   412.7    6.9      32.403
2013    5       26     0  46    4.65   412.7    6.9      32.401
2013    5       26     0  52    4.66   412.6    6.9      32.399
2013    5       26     0  59    4.67   412.6    6.9      32.396
2013    5       26     1   5    4.67   412.6    6.9      32.392
2013    5       26     1  11    4.68   412.5    6.9      32.388
2013    5       26     1  17    4.69   412.5    6.9      32.383
2013    5       26     1  24    4.69   412.5    6.9      32.378
2013    5       26     1  30    4.70   412.4    6.9      32.371
2013    5       26     1  36    4.71   412.4    6.9      32.365
2013    5       26     1  42    4.71   412.3    6.9      32.357
2013    5       26     1  49    4.72   412.3    6.9      32.349
2013    5       26     1  55    4.73   412.3    6.9      32.341
2013    5       26     2   1    4.74   412.2    6.9      32.332
2013    5       26     2   7    4.74   412.2    6.9      32.322
2013    5       26     2  14    4.75   412.1    6.9      32.312
2013    5       26     2  20    4.76   412.1    6.9      32.301
2013    5       26     2  26    4.76   412.0    6.9      32.290
2013    5       26     2  32    4.77   412.0    6.9      32.279
2013    5       26     2  39    4.78   411.9    6.9      32.267
2013    5       26     2  45    4.78   411.9    6.9      32.255
2013    5       26     2  51    4.79   411.8    6.9      32.242
2013    5       26     2  58    4.80   411.8    6.9      32.229
2013    5       26     3   4    4.80   411.7    6.9      32.217
2013    5       26     3  10    4.81   411.7    6.9      32.203
2013    5       26     3  16    4.82   411.6    6.9      32.189
2013    5       26     3  23    4.82   411.5    6.9      32.175
2013    5       26     3  29    4.83   411.5    6.9      32.162
2013    5       26     3  35    4.83   411.4    6.9      32.147
2013    5       26     3  42    4.84   411.4    6.9      32.133
2013    5       26     3  48    4.84   411.3    6.9      32.119
2013    5       26     3  54    4.85   411.2    6.9      32.104
2013    5       26     4   0    4.85   411.2    6.9      32.090
2013    5       26     4   7    4.86   411.1    6.9      32.075
2013    5       26     4  13    4.86   411.1    6.9      32.060
2013    5       26     4  19    4.87   411.0    6.9      32.046
2013    5       26     4  25    4.87   410.9    6.9      32.031
2013    5       26     4  32    4.88   410.9    6.9      32.017
2013    5       26     4  38    4.88   410.8    6.9      32.002
2013    5       26     4  44    4.89   410.7    6.9      31.988
2013    5       26     4  50    4.89   410.7    6.9      31.973
2013    5       26     4  57    4.89   410.6    6.9      31.958
2013    5       26     5   3    4.90   410.5    6.9      31.944
2013    5       26     5   9    4.90   410.5    6.9      31.930
2013    5       26     5  15    4.90   410.4    6.9      31.915
2013    5       26     5  22    4.91   410.3    6.9      31.901
2013    5       26     5  28    4.91   410.3    6.8      31.887
2013    5       26     5  34    4.91   410.2    6.8      31.873
2013    5       26     5  40    4.92   410.1    6.8      31.858
2013    5       26     5  46    4.92   410.0    6.8      31.844
2013    5       26     5  53    4.92   410.0    6.8      31.830
2013    5       26     5  59    4.93   409.9    6.8      31.816
2013    5       26     6   5    4.93   409.8    6.8      31.802
2013    5       26     6  11    4.93   409.8    6.8      31.789
2013    5       26     6  17    4.93   409.7    6.8      31.775
2013    5       26     6  24    4.94   409.6    6.8      31.761
2013    5       26     6  30    4.94   409.6    6.8      31.748
2013    5       26     6  36    4.94   409.5    6.8      31.735
2013    5       26     6  42    4.94   409.4    6.8      31.721
2013    5       26     6  48    4.94   409.3    6.8      31.708
2013    5       26     6  55    4.95   409.3    6.8      31.695
2013    5       26     7   1    4.95   409.2    6.8      31.682
2013    5       26     7   7    4.95   409.1    6.8      31.669
2013    5       26     7  13    4.95   409.1    6.8      31.657
2013    5       26     7  20    4.95   409.0    6.8      31.644
2013    5       26     7  26    4.96   408.9    6.8      31.632
2013    5       26     7  32    4.96   408.8    6.8      31.620
2013    5       26     7  38    4.96   408.8    6.8      31.609
2013    5       26     7  44    4.96   408.7    6.7      31.597
2013    5       26     7  51    4.96   408.6    6.7      31.586
2013    5       26     7  57    4.97   408.6    6.7      31.575
2013    5       26     8   3    4.97   408.5    6.7      31.564
2013    5       26     8   9    4.97   408.4    6.7      31.553
2013    5       26     8  16    4.97   408.4    6.7      31.543
2013    5       26     8  22    4.97   408.3    6.7      31.533
2013    5       26     8  28    4.97   408.2    6.7      31.523
2013    5       26     8  34    4.98   408.2    6.7      31.514
2013    5       26     8  40    4.98   408.1    6.7      31.505
2013    5       26     8  47    4.98   408.0    6.7      31.496
2013    5       26     8  53    4.98   408.0    6.7      31.488
2013    5       26     8  59    4.98   407.9    6.7      31.480
2013    5       26     9   5    4.98   407.8    6.7      31.473
2013    5       26     9  12    4.99   407.8    6.7      31.466
2013    5       26     9  18    4.99   407.7    6.7      31.459
2013    5       26     9  24    4.99   407.6    6.7      31.453
2013    5       26     9  30    4.99   407.6    6.7      31.447
2013    5       26     9  37    4.99   407.5    6.7      31.442
2013    5       26     9  43    4.99   407.5    6.7      31.437
2013    5       26     9  49    4.99   407.4    6.7      31.432
2013    5       26     9  56    5.00   407.3    6.7      31.429
2013    5       26    10   2    5.00   407.3    6.7      31.425
2013    5       26    10   8    5.00   407.2    6.7      31.423
2013    5       26    10  14    5.00   407.2    6.7      31.421
2013    5       26    10  21    5.00   407.1    6.7      31.419
2013    5       26    10  27    5.00   407.0    6.7      31.418
2013    5       26    10  33    5.00   407.0    6.7      31.418
2013    5       26    10  40    5.01   406.9    6.7      31.418
2013    5       26    10  46    5.01   406.9    6.7      31.419
2013    5       26    10  52    5.01   406.8    6.7      31.421
2013    5       26    10  58    5.01   406.8    6.7      31.423
2013    5       26    11   5    5.01   406.7    6.7      31.427
2013    5       26    11  11    5.01   406.7    6.7      31.430
2013    5       26    11  17    5.01   406.6    6.7      31.435
2013    5       26    11  23    5.02   406.6    6.7      31.440
2013    5       26    11  30    5.02   406.6    6.7      31.446
2013    5       26    11  36    5.02   406.5    6.7      31.453
2013    5       26    11  42    5.02   406.5    6.7      31.461
2013    5       26    11  48    5.02   406.4    6.7      31.469
2013    5       26    11  55    5.02   406.4    6.7      31.478
2013    5       26    12   1    5.02   406.4    6.7      31.488
2013    5       26    12   7    5.02   406.3    6.7      31.499
2013    5       26    12  13    5.03   406.3    6.7      31.510
2013    5       26    12  20    5.03   406.3    6.7      31.522
2013    5       26    12  26    5.03   406.2    6.7      31.535
2013    5       26    12  32    5.03   406.2    6.7      31.548
2013    5       26    12  38    5.03   406.2    6.7      31.563
2013    5       26    12  45    5.03   406.1    6.7      31.578
2013    5       26    12  51    5.03   406.1    6.7      31.593
2013    5       26    12  57    5.03   406.1    6.7      31.610
2013    5       26    13   3    5.03   406.1    6.7      31.627
2013    5       26    13   9    5.03   406.0    6.7      31.645
2013    5       26    13  16    5.04   406.0    6.7      31.663
2013    5       26    13  22    5.04   406.0    6.7      31.682
2013    5       26    13  28    5.04   406.0    6.7      31.701
2013    5       26    13  34    5.04   406.0    6.7      31.722
2013    5       26    13  40    5.04   406.0    6.7      31.742
2013    5       26    13  47    5.04   405.9    6.7      31.763
2013    5       26    13  53    5.04   405.9    6.7      31.785
2013    5       26    13  59    5.04   405.9    6.7      31.807
2013    5       26    14   5    5.04   405.9    6.7      31.830
2013    5       26    14  11    5.04   405.9    6.7      31.853
2013    5       26    14  18    5.05   405.9    6.7      31.876
2013    5       26    14  24    5.05   405.9    6.7      31.900
2013    5       26    14  30    5.05   405.9    6.7      31.924
2013    5       26    14  36    5.05   405.9    6.7      31.949
2013    5       26    14  42    5.05   405.9    6.7      31.973
2013    5       26    14  49    5.05   405.9    6.8      31.998
2013    5       26    14  55    5.05   405.9    6.8      32.023
2013    5       26    15   1    5.05   405.9    6.8      32.048
2013    5       26    15   7    5.05   405.9    6.8      32.073
2013    5       26    15  14    5.05   405.9    6.8      32.099
2013    5       26    15  20    5.06   405.9    6.8      32.124
2013    5       26    15  26    5.06   405.9    6.8      32.150
2013    5       26    15  32    5.06   405.9    6.8      32.175
2013    5       26    15  38    5.06   405.9    6.8      32.201
2013    5       26    15  45    5.06   405.9    6.8      32.226
2013    5       26    15  51    5.06   405.9    6.8      32.252
2013    5       26    15  57    5.06   405.9    6.8      32.277
2013    5       26    16   3    5.06   405.9    6.8      32.303
2013    5       26    16  10    5.06   405.9    6.8      32.328
2013    5       26    16  16    5.06   405.9    6.8      32.353
2013    5       26    16  22    5.07   405.9    6.9      32.377
2013    5       26    16  28    5.07   405.9    6.9      32.402
2013    5       26    16  35    5.07   405.9    6.9      32.426
2013    5       26    16  41    5.07   406.0    6.9      32.450
2013    5       26    16  47    5.07   406.0    6.9      32.473
2013    5       26    16  53    5.07   406.0    6.9      32.497
2013    5       26    17   0    5.07   406.0    6.9      32.520
2013    5       26    17   6    5.07   406.0    6.9      32.543
2013    5       26    17  12    5.08   406.0    6.9      32.565
2013    5       26    17  19    5.08   406.0    6.9      32.587
2013    5       26    17  25    5.08   406.0    6.9      32.609
2013    5       26    17  31    5.08   406.0    6.9      32.630
2013    5       26    17  37    5.08   406.0    7.0      32.649
2013    5       26    17  44    5.08   406.0    7.0      32.669
2013    5       26    17  50    5.08   406.1    7.0      32.688
2013    5       26    17  56    5.08   406.1    7.0      32.706
2013    5       26    18   2    5.09   406.1    7.0      32.723
2013    5       26    18   9    5.09   406.1    7.0      32.740
2013    5       26    18  15    5.09   406.1    7.0      32.757
2013    5       26    18  21    5.09   406.1    7.0      32.774
2013    5       26    18  28    5.09   406.1    7.0      32.790
2013    5       26    18  34    5.09   406.1    7.0      32.805
2013    5       26    18  40    5.10   406.1    7.0      32.819
2013    5       26    18  46    5.10   406.2    7.0      32.833
2013    5       26    18  53    5.10   406.2    7.0      32.846
2013    5       26    18  59    5.10   406.2    7.1      32.857
2013    5       26    19   5    5.10   406.2    7.1      32.868
2013    5       26    19  11    5.11   406.2    7.1      32.878
2013    5       26    19  18    5.11   406.2    7.1      32.888
2013    5       26    19  24    5.11   406.3    7.1      32.896
2013    5       26    19  30    5.11   406.3    7.1      32.904
2013    5       26    19  36    5.11   406.3    7.1      32.912
2013    5       26    19  42    5.12   406.3    7.1      32.919
2013    5       26    19  49    5.12   406.3    7.1      32.925
2013    5       26    19  55    5.12   406.4    7.1      32.931
2013    5       26    20   1    5.12   406.4    7.1      32.936
2013    5       26    20   7    5.13   406.4    7.1      32.941
2013    5       26    20  13    5.13   406.4    7.1      32.945
2013    5       26    20  20    5.13   406.4    7.1      32.949
2013    5       26    20  26    5.13   406.5    7.2      32.953
2013    5       26    20  32    5.14   406.5    7.2      32.956
2013    5       26    20  38    5.14   406.5    7.2      32.959
2013    5       26    20  44    5.14   406.5    7.2      32.962
2013    5       26    20  51    5.15   406.5    7.2      32.964
2013    5       26    20  57    5.15   406.6    7.2      32.967
2013    5       26    21   3    5.15   406.6    7.2      32.969
2013    5       26    21   9    5.15   406.6    7.2      32.972
2013    5       26    21  15    5.16   406.6    7.2      32.974
2013    5       26    21  22    5.16   406.6    7.2      32.977
2013    5       26    21  28    5.16   406.7    7.2      32.979
2013    5       26    21  34    5.17   406.7    7.2      32.982
2013    5       26    21  40    5.17   406.7    7.2      32.984
2013    5       26    21  46    5.17   406.7    7.2      32.987
2013    5       26    21  53    5.18   406.8    7.2      32.989
2013    5       26    21  59    5.18   406.8    7.2      32.991
2013    5       26    22   5    5.18   406.8    7.2      32.994
2013    5       26    22  11    5.19   406.8    7.2      32.996
2013    5       26    22  17    5.19   406.8    7.2      32.998
2013    5       26    22  24    5.19   406.9    7.3      33.001
2013    5       26    22  30    5.19   406.9    7.3      33.004
2013    5       26    22  36    5.20   406.9    7.3      33.008
2013    5       26    22  42    5.20   407.0    7.3      33.013
2013    5       26    22  49    5.20   407.0    7.3      33.019
2013    5       26    22  55    5.21   407.0    7.3      33.025
2013    5       26    23   1    5.21   407.1    7.3      33.032
2013    5       26    23   7    5.21   407.1    7.3      33.040
2013    5       26    23  13    5.22   407.2    7.3      33.048
2013    5       26    23  20    5.22   407.2    7.3      33.055
2013    5       26    23  26    5.22   407.2    7.3      33.062
2013    5       26    23  32    5.23   407.3    7.3      33.069
2013    5       26    23  38    5.23   407.3    7.3      33.076
2013    5       26    23  45    5.23   407.4    7.3      33.083
2013    5       26    23  51    5.23   407.4    7.3      33.090
2013    5       26    23  57    5.24   407.4    7.3      33.096
2013    5       27     0   3    5.24   407.5    7.3      33.102
2013    5       27     0  10    5.24   407.5    7.3      33.108
2013    5       27     0  16    5.24   407.6    7.3      33.113
2013    5       27     0  22    5.25   407.6    7.3      33.119
2013    5       27     0  29    5.25   407.6    7.3      33.124
2013    5       27     0  35    5.25   407.7    7.3      33.128
2013    5       27     0  41    5.25   407.7    7.3      33.133
2013    5       27     0  47    5.26   407.8    7.3      33.137
2013    5       27     0  54    5.26   407.8    7.3      33.141
2013    5       27     1   0    5.26   407.8    7.3      33.145
2013    5       27     1   6    5.26   407.9    7.3      33.149
2013    5       27     1  13    5.27   407.9    7.3      33.153
2013    5       27     1  19    5.27   408.0    7.3      33.156
2013    5       27     1  25    5.27   408.0    7.3      33.159
2013    5       27     1  31    5.27   408.0    7.3      33.162
2013    5       27     1  38    5.28   408.1    7.3      33.165
2013    5       27     1  44    5.28   408.1    7.3      33.168
2013    5       27     1  50    5.28   408.2    7.3      33.171
2013    5       27     1  56    5.28   408.2    7.3      33.173
2013    5       27     2   3    5.29   408.2    7.3      33.176
2013    5       27     2   9    5.29   408.3    7.3      33.178
2013    5       27     2  15    5.29   408.3    7.3      33.181
2013    5       27     2  21    5.29   408.4    7.3      33.183
2013    5       27     2  28    5.29   408.4    7.3      33.185
2013    5       27     2  34    5.30   408.4    7.3      33.188
2013    5       27     2  40    5.30   408.5    7.3      33.190
2013    5       27     2  46    5.30   408.5    7.3      33.193
2013    5       27     2  52    5.30   408.5    7.3      33.195
2013    5       27     2  59    5.31   408.6    7.3      33.198
2013    5       27     3   5    5.31   408.6    7.3      33.200
2013    5       27     3  11    5.31   408.7    7.3      33.203
2013    5       27     3  17    5.31   408.7    7.3      33.206
2013    5       27     3  23    5.31   408.7    7.3      33.209
2013    5       27     3  30    5.32   408.8    7.3      33.213
2013    5       27     3  36    5.32   408.8    7.3      33.216
2013    5       27     3  42    5.32   408.9    7.3      33.220
2013    5       27     3  48    5.32   408.9    7.3      33.224
2013    5       27     3  54    5.33   409.0    7.3      33.228
2013    5       27     4   0    5.33   409.0    7.3      33.233
2013    5       27     4   7    5.33   409.0    7.3      33.238
2013    5       27     4  13    5.33   409.1    7.3      33.243
2013    5       27     4  19    5.34   409.1    7.3      33.249
2013    5       27     4  25    5.34   409.2    7.3      33.255
2013    5       27     4  31    5.34   409.2    7.3      33.261
2013    5       27     4  38    5.34   409.3    7.3      33.268
2013    5       27     4  44    5.34   409.3    7.3      33.275
2013    5       27     4  50    5.35   409.4    7.3      33.282
2013    5       27     4  56    5.35   409.4    7.3      33.290
2013    5       27     5   2    5.35   409.5    7.3      33.298
2013    5       27     5   9    5.35   409.5    7.3      33.307
2013    5       27     5  15    5.36   409.6    7.3      33.316
2013    5       27     5  21    5.36   409.6    7.3      33.325
2013    5       27     5  27    5.36   409.7    7.3      33.335
2013    5       27     5  33    5.36   409.7    7.3      33.345
2013    5       27     5  40    5.37   409.8    7.3      33.355
2013    5       27     5  46    5.37   409.8    7.3      33.366
2013    5       27     5  52    5.37   409.9    7.3      33.377
2013    5       27     5  58    5.37   410.0    7.3      33.388
2013    5       27     6   4    5.38   410.0    7.3      33.400
2013    5       27     6  11    5.38   410.1    7.3      33.412
2013    5       27     6  17    5.38   410.1    7.3      33.424
2013    5       27     6  23    5.38   410.2    7.3      33.436
2013    5       27     6  29    5.39   410.2    7.3      33.449
2013    5       27     6  36    5.39   410.3    7.3      33.462
2013    5       27     6  42    5.39   410.4    7.3      33.475
2013    5       27     6  48    5.39   410.4    7.4      33.489
2013    5       27     6  54    5.39   410.5    7.4      33.503
2013    5       27     7   1    5.40   410.6    7.4      33.517
2013    5       27     7   7    5.40   410.6    7.4      33.531
2013    5       27     7  13    5.40   410.7    7.4      33.545
2013    5       27     7  19    5.40   410.8    7.4      33.559
2013    5       27     7  26    5.41   410.8    7.4      33.574
2013    5       27     7  32    5.41   410.9    7.4      33.589
2013    5       27     7  38    5.41   411.0    7.4      33.603
2013    5       27     7  44    5.41   411.0    7.4      33.618
2013    5       27     7  51    5.41   411.1    7.4      33.633
2013    5       27     7  57    5.42   411.2    7.4      33.649
2013    5       27     8   3    5.42   411.2    7.4      33.664
2013    5       27     8  10    5.42   411.3    7.4      33.679
2013    5       27     8  16    5.42   411.4    7.4      33.694
2013    5       27     8  22    5.42   411.4    7.4      33.710
2013    5       27     8  28    5.43   411.5    7.4      33.725
2013    5       27     8  35    5.43   411.6    7.4      33.741
2013    5       27     8  41    5.43   411.7    7.4      33.757
2013    5       27     8  47    5.43   411.7    7.4      33.773
2013    5       27     8  54    5.43   411.8    7.4      33.790
2013    5       27     9   0    5.44   411.9    7.4      33.807
2013    5       27     9   6    5.44   412.0    7.4      33.824
2013    5       27     9  12    5.44   412.0    7.4      33.842
2013    5       27     9  19    5.44   412.1    7.4      33.859
2013    5       27     9  25    5.44   412.2    7.4      33.876
2013    5       27     9  31    5.45   412.3    7.4      33.894
2013    5       27     9  37    5.45   412.3    7.4      33.911
2013    5       27     9  44    5.45   412.4    7.4      33.927
2013    5       27     9  50    5.45   412.5    7.4      33.944
2013    5       27     9  56    5.45   412.6    7.4      33.961
2013    5       27    10   2    5.46   412.6    7.4      33.977
2013    5       27    10   8    5.46   412.7    7.4      33.994
2013    5       27    10  15    5.46   412.8    7.4      34.010
2013    5       27    10  21    5.46   412.9    7.4      34.026
2013    5       27    10  27    5.46   412.9    7.4      34.042
2013    5       27    10  33    5.46   413.0    7.4      34.058
2013    5       27    10  39    5.47   413.1    7.4      34.073
2013    5       27    10  46    5.47   413.2    7.4      34.089
2013    5       27    10  52    5.47   413.2    7.4      34.104
2013    5       27    10  58    5.47   413.3    7.4      34.119
2013    5       27    11   4    5.47   413.4    7.4      34.134
2013    5       27    11  10    5.47   413.5    7.4      34.149
2013    5       27    11  16    5.48   413.5    7.4      34.164
2013    5       27    11  23    5.48   413.6    7.4      34.179
2013    5       27    11  29    5.48   413.7    7.4      34.193
2013    5       27    11  35    5.48   413.8    7.4      34.208
2013    5       27    11  41    5.48   413.8    7.4      34.223
2013    5       27    11  47    5.48   413.9    7.4      34.238
2013    5       27    11  54    5.48   414.0    7.4      34.252
2013    5       27    12   0    5.49   414.0    7.4      34.267
2013    5       27    12   6    5.49   414.1    7.4      34.282
2013    5       27    12  12    5.49   414.2    7.5      34.297
2013    5       27    12  18    5.49   414.3    7.5      34.312
2013    5       27    12  25    5.49   414.3    7.5      34.328
2013    5       27    12  31    5.49   414.4    7.5      34.343
2013    5       27    12  37    5.50   414.5    7.5      34.359
2013    5       27    12  43    5.50   414.5    7.5      34.375
2013    5       27    12  49    5.50   414.6    7.5      34.391
2013    5       27    12  56    5.50   414.7    7.5      34.408
2013    5       27    13   2    5.50   414.8    7.5      34.424
2013    5       27    13   8    5.50   414.8    7.5      34.442
2013    5       27    13  14    5.51   414.9    7.5      34.459
2013    5       27    13  20    5.51   415.0    7.5      34.477
2013    5       27    13  27    5.51   415.0    7.5      34.496
2013    5       27    13  33    5.51   415.1    7.5      34.514
2013    5       27    13  39    5.51   415.2    7.5      34.534
2013    5       27    13  45    5.51   415.3    7.5      34.553
2013    5       27    13  52    5.52   415.3    7.5      34.574
2013    5       27    13  58    5.52   415.4    7.5      34.595
2013    5       27    14   4    5.52   415.5    7.5      34.617
2013    5       27    14  10    5.52   415.6    7.5      34.639
2013    5       27    14  17    5.52   415.6    7.5      34.662
2013    5       27    14  23    5.53   415.7    7.5      34.686
2013    5       27    14  29    5.53   415.8    7.5      34.711
2013    5       27    14  35    5.53   415.8    7.5      34.736
2013    5       27    14  42    5.53   415.9    7.5      34.762
2013    5       27    14  48    5.53   416.0    7.5      34.788
2013    5       27    14  54    5.54   416.1    7.5      34.815
2013    5       27    15   0    5.54   416.1    7.5      34.842
2013    5       27    15   7    5.54   416.2    7.5      34.870
2013    5       27    15  13    5.54   416.3    7.5      34.898
2013    5       27    15  19    5.54   416.3    7.5      34.926
2013    5       27    15  26    5.55   416.4    7.5      34.955
2013    5       27    15  32    5.55   416.5    7.5      34.984
2013    5       27    15  38    5.55   416.5    7.5      35.013
2013    5       27    15  44    5.55   416.6    7.5      35.042
2013    5       27    15  51    5.56   416.7    7.5      35.071
2013    5       27    15  57    5.56   416.7    7.5      35.101
2013    5       27    16   3    5.56   416.8    7.5      35.130
2013    5       27    16  10    5.56   416.9    7.5      35.159
2013    5       27    16  16    5.56   417.0    7.5      35.189
2013    5       27    16  22    5.57   417.0    7.5      35.218
2013    5       27    16  28    5.57   417.1    7.5      35.247
2013    5       27    16  35    5.57   417.2    7.5      35.276
2013    5       27    16  41    5.57   417.2    7.5      35.304
2013    5       27    16  47    5.58   417.3    7.5      35.332
2013    5       27    16  53    5.58   417.4    7.5      35.360
2013    5       27    16  59    5.58   417.4    7.5      35.388
2013    5       27    17   6    5.58   417.5    7.5      35.415
2013    5       27    17  12    5.59   417.6    7.5      35.442
2013    5       27    17  18    5.59   417.6    7.5      35.468
2013    5       27    17  24    5.59   417.7    7.5      35.494
2013    5       27    17  31    5.59   417.8    7.5      35.520
2013    5       27    17  37    5.60   417.8    7.5      35.545
2013    5       27    17  43    5.60   417.9    7.5      35.571
2013    5       27    17  49    5.60   418.0    7.5      35.596
2013    5       27    17  55    5.60   418.0    7.5      35.620
2013    5       27    18   2    5.61   418.1    7.5      35.645
2013    5       27    18   8    5.61   418.1    7.5      35.669
2013    5       27    18  14    5.61   418.2    7.5      35.693
2013    5       27    18  20    5.61   418.3    7.5      35.716
2013    5       27    18  26    5.62   418.3    7.5      35.740
2013    5       27    18  32    5.62   418.4    7.5      35.763
2013    5       27    18  39    5.62   418.5    7.5      35.787
2013    5       27    18  45    5.62   418.5    7.5      35.810
2013    5       27    18  51    5.63   418.6    7.5      35.834
2013    5       27    18  57    5.63   418.7    7.5      35.857
2013    5       27    19   3    5.63   418.7    7.5      35.880
2013    5       27    19  10    5.63   418.8    7.5      35.904
2013    5       27    19  16    5.64   418.8    7.5      35.928
2013    5       27    19  22    5.64   418.9    7.5      35.952
2013    5       27    19  28    5.64   419.0    7.5      35.976
2013    5       27    19  34    5.65   419.0    7.5      36.001
2013    5       27    19  41    5.65   419.1    7.5      36.026
2013    5       27    19  47    5.65   419.2    7.5      36.051
2013    5       27    19  53    5.65   419.3    7.5      36.077
2013    5       27    19  59    5.66   419.3    7.5      36.103
2013    5       27    20   5    5.66   419.4    7.5      36.128
2013    5       27    20  12    5.66   419.5    7.5      36.153
2013    5       27    20  18    5.66   419.5    7.5      36.179
2013    5       27    20  24    5.67   419.6    7.5      36.204
2013    5       27    20  30    5.67   419.7    7.6      36.230
2013    5       27    20  36    5.67   419.8    7.6      36.256
2013    5       27    20  43    5.67   419.8    7.6      36.282
2013    5       27    20  49    5.68   419.9    7.6      36.307
2013    5       27    20  55    5.68   420.0    7.6      36.333
2013    5       27    21   1    5.68   420.1    7.6      36.359
2013    5       27    21   8    5.68   420.1    7.6      36.385
2013    5       27    21  14    5.69   420.2    7.6      36.410
2013    5       27    21  20    5.69   420.3    7.6      36.434
2013    5       27    21  26    5.69   420.4    7.6      36.459
2013    5       27    21  33    5.69   420.4    7.6      36.482
2013    5       27    21  39    5.70   420.5    7.6      36.505
2013    5       27    21  45    5.70   420.6    7.6      36.528
2013    5       27    21  51    5.70   420.7    7.6      36.551
2013    5       27    21  58    5.70   420.8    7.6      36.573
2013    5       27    22   4    5.70   420.8    7.6      36.594
2013    5       27    22  10    5.71   420.9    7.6      36.615
2013    5       27    22  16    5.71   421.0    7.6      36.636
2013    5       27    22  23    5.71   421.1    7.6      36.656
2013    5       27    22  29    5.71   421.2    7.6      36.676
2013    5       27    22  35    5.71   421.3    7.6      36.696
2013    5       27    22  41    5.72   421.3    7.6      36.715
2013    5       27    22  48    5.72   421.4    7.6      36.734
2013    5       27    22  54    5.72   421.5    7.6      36.753
2013    5       27    23   0    5.72   421.6    7.5      36.771
2013    5       27    23   7    5.72   421.7    7.5      36.789
2013    5       27    23  13    5.72   421.8    7.5      36.806
2013    5       27    23  19    5.73   421.8    7.5      36.824
2013    5       27    23  25    5.73   421.9    7.5      36.841
2013    5       27    23  32    5.73   422.0    7.5      36.858
2013    5       27    23  38    5.73   422.1    7.5      36.874
2013    5       27    23  44    5.73   422.2    7.5      36.891
2013    5       27    23  51    5.73   422.3    7.5      36.907
2013    5       27    23  57    5.73   422.3    7.5      36.923
2013    5       28     0   3    5.74   422.4    7.5      36.939
2013    5       28     0   9    5.74   422.5    7.5      36.954
2013    5       28     0  15    5.74   422.6    7.5      36.970
2013    5       28     0  22    5.74   422.7    7.5      36.985
2013    5       28     0  28    5.74   422.8    7.5      37.001
2013    5       28     0  34    5.74   422.8    7.5      37.016
2013    5       28     0  40    5.74   422.9    7.5      37.032
2013    5       28     0  47    5.75   423.0    7.5      37.047
2013    5       28     0  53    5.75   423.1    7.5      37.063
2013    5       28     0  59    5.75   423.2    7.5      37.079
2013    5       28     1   5    5.75   423.3    7.5      37.096
2013    5       28     1  11    5.75   423.4    7.5      37.113
2013    5       28     1  18    5.75   423.5    7.5      37.131
2013    5       28     1  24    5.75   423.6    7.5      37.148
2013    5       28     1  30    5.75   423.7    7.5      37.166
2013    5       28     1  36    5.76   423.8    7.5      37.183
2013    5       28     1  42    5.76   423.9    7.5      37.201
2013    5       28     1  48    5.76   424.0    7.5      37.218
2013    5       28     1  55    5.76   424.1    7.5      37.235
2013    5       28     2   1    5.76   424.1    7.5      37.251
2013    5       28     2   7    5.76   424.2    7.5      37.268
2013    5       28     2  13    5.76   424.3    7.5      37.284
2013    5       28     2  19    5.76   424.4    7.5      37.300
2013    5       28     2  26    5.76   424.5    7.5      37.316
2013    5       28     2  32    5.76   424.6    7.5      37.331
2013    5       28     2  38    5.76   424.7    7.5      37.347
2013    5       28     2  44    5.76   424.8    7.5      37.362
2013    5       28     2  50    5.76   424.9    7.5      37.377
2013    5       28     2  57    5.77   425.0    7.5      37.392
2013    5       28     3   3    5.77   425.1    7.5      37.407
2013    5       28     3   9    5.77   425.2    7.5      37.421
2013    5       28     3  15    5.77   425.3    7.5      37.436
2013    5       28     3  21    5.77   425.4    7.5      37.450
2013    5       28     3  28    5.77   425.5    7.5      37.464
2013    5       28     3  34    5.77   425.6    7.4      37.479
2013    5       28     3  40    5.77   425.7    7.4      37.493
2013    5       28     3  46    5.77   425.8    7.4      37.507
2013    5       28     3  52    5.77   425.9    7.4      37.521
2013    5       28     3  59    5.77   426.0    7.4      37.535
2013    5       28     4   5    5.77   426.1    7.4      37.549
2013    5       28     4  11    5.77   426.2    7.4      37.563
2013    5       28     4  17    5.77   426.2    7.4      37.577
2013    5       28     4  24    5.77   426.3    7.4      37.591
2013    5       28     4  30    5.77   426.4    7.4      37.604
2013    5       28     4  36    5.77   426.5    7.4      37.618
2013    5       28     4  42    5.77   426.6    7.4      37.632
2013    5       28     4  49    5.77   426.7    7.4      37.646
2013    5       28     4  55    5.77   426.8    7.4      37.660
2013    5       28     5   1    5.78   426.9    7.4      37.674
2013    5       28     5   7    5.78   427.0    7.4      37.688
2013    5       28     5  14    5.78   427.1    7.4      37.702
2013    5       28     5  20    5.78   427.2    7.4      37.716
2013    5       28     5  26    5.78   427.3    7.4      37.730
2013    5       28     5  32    5.78   427.4    7.4      37.744
2013    5       28     5  39    5.78   427.5    7.4      37.758
2013    5       28     5  45    5.78   427.6    7.4      37.773
2013    5       28     5  51    5.78   427.7    7.4      37.787
2013    5       28     5  57    5.78   427.8    7.4      37.801
2013    5       28     6   4    5.78   427.8    7.4      37.816
2013    5       28     6  10    5.78   427.9    7.4      37.830
2013    5       28     6  16    5.78   428.0    7.4      37.845
2013    5       28     6  23    5.78   428.1    7.4      37.860
2013    5       28     6  29    5.78   428.2    7.4      37.876
2013    5       28     6  35    5.78   428.3    7.4      37.891
2013    5       28     6  41    5.78   428.4    7.4      37.907
2013    5       28     6  48    5.78   428.5    7.3      37.922
2013    5       28     6  54    5.78   428.6    7.3      37.938
2013    5       28     7   0    5.78   428.7    7.3      37.953
2013    5       28     7   6    5.78   428.8    7.3      37.968
2013    5       28     7  13    5.78   428.9    7.3      37.984
2013    5       28     7  19    5.78   429.0    7.3      37.999
2013    5       28     7  25    5.78   429.1    7.3      38.014
2013    5       28     7  31    5.78   429.2    7.3      38.029
2013    5       28     7  38    5.78   429.3    7.3      38.044
2013    5       28     7  44    5.78   429.4    7.3      38.059
2013    5       28     7  50    5.78   429.5    7.3      38.074
2013    5       28     7  56    5.78   429.6    7.3      38.089
2013    5       28     8   3    5.78   429.7    7.3      38.103
2013    5       28     8   9    5.78   429.8    7.3      38.118
2013    5       28     8  15    5.78   429.9    7.3      38.133
2013    5       28     8  21    5.78   429.9    7.3      38.147
2013    5       28     8  27    5.78   430.0    7.3      38.162
2013    5       28     8  34    5.78   430.1    7.3      38.176
2013    5       28     8  40    5.78   430.2    7.3      38.191
2013    5       28     8  46    5.78   430.3    7.3      38.205
2013    5       28     8  52    5.78   430.4    7.3      38.220
2013    5       28     8  58    5.78   430.5    7.3      38.235
2013    5       28     9   4    5.79   430.6    7.3      38.249
2013    5       28     9  11    5.79   430.7    7.3      38.264
2013    5       28     9  17    5.79   430.8    7.3      38.279
2013    5       28     9  23    5.79   430.9    7.3      38.294
2013    5       28     9  29    5.79   431.0    7.3      38.309
2013    5       28     9  35    5.79   431.1    7.3      38.324
2013    5       28     9  42    5.79   431.1    7.3      38.339
2013    5       28     9  48    5.79   431.2    7.3      38.354
2013    5       28     9  54    5.79   431.3    7.3      38.369
2013    5       28    10   0    5.79   431.4    7.3      38.384
2013    5       28    10   6    5.79   431.5    7.3      38.400
2013    5       28    10  13    5.79   431.6    7.3      38.415
2013    5       28    10  19    5.79   431.7    7.2      38.430
2013    5       28    10  25    5.79   431.8    7.2      38.446
2013    5       28    10  31    5.79   431.9    7.2      38.461
2013    5       28    10  37    5.79   432.0    7.2      38.476
2013    5       28    10  44    5.79   432.1    7.2      38.491
2013    5       28    10  50    5.79   432.2    7.2      38.506
2013    5       28    10  56    5.79   432.3    7.2      38.522
2013    5       28    11   2    5.79   432.4    7.2      38.537
2013    5       28    11   8    5.79   432.5    7.2      38.552
2013    5       28    11  15    5.79   432.5    7.2      38.567
2013    5       28    11  21    5.79   432.6    7.2      38.582
2013    5       28    11  27    5.79   432.7    7.2      38.597
2013    5       28    11  33    5.79   432.8    7.2      38.611
2013    5       28    11  40    5.79   432.9    7.2      38.626
2013    5       28    11  46    5.79   433.0    7.2      38.641
2013    5       28    11  52    5.79   433.1    7.2      38.656
2013    5       28    11  58    5.79   433.2    7.2      38.671
2013    5       28    12   5    5.79   433.3    7.2      38.685
2013    5       28    12  11    5.79   433.4    7.2      38.700
2013    5       28    12  17    5.79   433.5    7.2      38.715
2013    5       28    12  23    5.79   433.6    7.2      38.729
2013    5       28    12  30    5.79   433.7    7.2      38.744
2013    5       28    12  36    5.79   433.8    7.2      38.759
2013    5       28    12  42    5.79   433.9    7.2      38.773
2013    5       28    12  48    5.79   434.0    7.2      38.788
2013    5       28    12  55    5.79   434.1    7.2      38.803
2013    5       28    13   1    5.79   434.2    7.2      38.817
2013    5       28    13   7    5.79   434.3    7.2      38.832
2013    5       28    13  13    5.79   434.4    7.2      38.847
2013    5       28    13  20    5.79   434.5    7.2      38.862
2013    5       28    13  26    5.79   434.6    7.2      38.878
2013    5       28    13  32    5.79   434.7    7.2      38.893
2013    5       28    13  39    5.79   434.7    7.2      38.908
2013    5       28    13  45    5.79   434.8    7.2      38.924
2013    5       28    13  51    5.79   434.9    7.2      38.940
2013    5       28    13  57    5.79   435.0    7.2      38.956
2013    5       28    14   4    5.79   435.1    7.1      38.972
2013    5       28    14  10    5.79   435.2    7.1      38.988
2013    5       28    14  16    5.79   435.3    7.1      39.004
2013    5       28    14  22    5.79   435.4    7.1      39.021
2013    5       28    14  29    5.79   435.5    7.1      39.038
2013    5       28    14  35    5.79   435.6    7.1      39.056
2013    5       28    14  41    5.79   435.7    7.1      39.074
2013    5       28    14  47    5.79   435.9    7.1      39.092
2013    5       28    14  54    5.79   436.0    7.1      39.111
2013    5       28    15   0    5.79   436.1    7.1      39.129
2013    5       28    15   6    5.79   436.2    7.1      39.148
2013    5       28    15  12    5.79   436.3    7.1      39.166
2013    5       28    15  19    5.79   436.4    7.1      39.184
2013    5       28    15  25    5.79   436.5    7.1      39.202
2013    5       28    15  31    5.79   436.6    7.1      39.220
2013    5       28    15  37    5.79   436.7    7.1      39.238
2013    5       28    15  43    5.79   436.8    7.1      39.256
2013    5       28    15  50    5.79   436.9    7.1      39.274
2013    5       28    15  56    5.79   437.0    7.1      39.291
2013    5       28    16   2    5.79   437.1    7.1      39.309
2013    5       28    16   8    5.79   437.2    7.1      39.326
2013    5       28    16  14    5.79   437.3    7.1      39.343
2013    5       28    16  20    5.79   437.4    7.1      39.360
2013    5       28    16  27    5.79   437.5    7.1      39.377
2013    5       28    16  33    5.79   437.6    7.1      39.394
2013    5       28    16  39    5.79   437.7    7.1      39.410
2013    5       28    16  45    5.79   437.8    7.1      39.427
2013    5       28    16  51    5.79   437.9    7.1      39.443
2013    5       28    16  57    5.79   438.0    7.1      39.460
2013    5       28    17   4    5.79   438.1    7.1      39.476
2013    5       28    17  10    5.79   438.2    7.1      39.492
2013    5       28    17  16    5.79   438.3    7.1      39.508
2013    5       28    17  22    5.79   438.4    7.1      39.524
2013    5       28    17  28    5.79   438.5    7.1      39.540
2013    5       28    17  35    5.79   438.6    7.1      39.556
2013    5       28    17  41    5.79   438.7    7.1      39.572
2013    5       28    17  47    5.79   438.9    7.1      39.588
2013    5       28    17  53    5.79   439.0    7.0      39.604
2013    5       28    17  59    5.79   439.1    7.0      39.620
2013    5       28    18   6    5.79   439.2    7.0      39.637
2013    5       28    18  12    5.79   439.3    7.0      39.653
2013    5       28    18  18    5.79   439.4    7.0      39.669
2013    5       28    18  24    5.79   439.5    7.0      39.685
2013    5       28    18  31    5.79   439.6    7.0      39.701
2013    5       28    18  37    5.79   439.7    7.0      39.718
2013    5       28    18  43    5.79   439.8    7.0      39.734
2013    5       28    18  49    5.79   439.9    7.0      39.751
2013    5       28    18  56    5.79   440.0    7.0      39.767
2013    5       28    19   2    5.79   440.1    7.0      39.784
2013    5       28    19   8    5.79   440.2    7.0      39.801
2013    5       28    19  14    5.79   440.4    7.0      39.817
2013    5       28    19  21    5.79   440.5    7.0      39.834
2013    5       28    19  27    5.79   440.6    7.0      39.851
2013    5       28    19  33    5.79   440.7    7.0      39.868
2013    5       28    19  39    5.79   440.8    7.0      39.885
2013    5       28    19  46    5.79   440.9    7.0      39.902
2013    5       28    19  52    5.79   441.0    7.0      39.919
2013    5       28    19  58    5.79   441.1    7.0      39.937
2013    5       28    20   4    5.79   441.2    7.0      39.955
2013    5       28    20  11    5.79   441.4    7.0      39.973
2013    5       28    20  17    5.79   441.5    7.0      39.992
2013    5       28    20  23    5.79   441.6    7.0      40.011
2013    5       28    20  29    5.79   441.7    7.0      40.029
2013    5       28    20  36    5.79   441.8    7.0      40.048
2013    5       28    20  42    5.79   441.9    7.0      40.067
2013    5       28    20  48    5.79   442.1    7.0      40.085
2013    5       28    20  55    5.79   442.2    7.0      40.104
2013    5       28    21   1    5.79   442.3    7.0      40.122
2013    5       28    21   7    5.79   442.4    7.0      40.140
2013    5       28    21  13    5.79   442.5    7.0      40.158
2013    5       28    21  20    5.79   442.7    7.0      40.175
2013    5       28    21  26    5.79   442.8    6.9      40.193
2013    5       28    21  32    5.79   442.9    6.9      40.210
2013    5       28    21  38    5.79   443.0    6.9      40.227
2013    5       28    21  45    5.79   443.1    6.9      40.244
2013    5       28    21  51    5.79   443.2    6.9      40.261
2013    5       28    21  57    5.79   443.4    6.9      40.277
2013    5       28    22   3    5.79   443.5    6.9      40.294
2013    5       28    22  10    5.79   443.6    6.9      40.310
2013    5       28    22  16    5.79   443.7    6.9      40.326
2013    5       28    22  22    5.79   443.8    6.9      40.343
2013    5       28    22  28    5.79   443.9    6.9      40.359
2013    5       28    22  34    5.79   444.1    6.9      40.375
2013    5       28    22  41    5.79   444.2    6.9      40.391
2013    5       28    22  47    5.79   444.3    6.9      40.407
2013    5       28    22  53    5.79   444.4    6.9      40.423
2013    5       28    22  59    5.79   444.5    6.9      40.439
2013    5       28    23   6    5.79   444.6    6.9      40.456
2013    5       28    23  12    5.79   444.8    6.9      40.472
2013    5       28    23  18    5.79   444.9    6.9      40.488
2013    5       28    23  24    5.79   445.0    6.9      40.505
2013    5       28    23  30    5.79   445.1    6.9      40.521
2013    5       28    23  36    5.79   445.2    6.9      40.538
2013    5       28    23  43    5.79   445.3    6.9      40.555
2013    5       28    23  49    5.79   445.5    6.9      40.571
2013    5       28    23  55    5.79   445.6    6.9      40.588
2013    5       29     0   1    5.79   445.7    6.9      40.606
2013    5       29     0   7    5.79   445.8    6.9      40.623
2013    5       29     0  13    5.79   445.9    6.9      40.640
2013    5       29     0  20    5.79   446.1    6.8      40.658
2013    5       29     0  26    5.79   446.2    6.8      40.675
2013    5       29     0  32    5.79   446.3    6.8      40.693
2013    5       29     0  38    5.79   446.4    6.8      40.710
2013    5       29     0  44    5.79   446.6    6.8      40.728
2013    5       29     0  51    5.79   446.7    6.8      40.746
2013    5       29     0  57    5.79   446.8    6.8      40.764
2013    5       29     1   3    5.79   446.9    6.8      40.782
2013    5       29     1   9    5.79   447.0    6.8      40.800
2013    5       29     1  15    5.79   447.2    6.8      40.818
2013    5       29     1  22    5.79   447.3    6.8      40.836
2013    5       29     1  28    5.79   447.4    6.8      40.855
2013    5       29     1  34    5.79   447.5    6.8      40.873
2013    5       29     1  40    5.79   447.7    6.8      40.892
2013    5       29     1  47    5.79   447.8    6.8      40.910
2013    5       29     1  53    5.79   447.9    6.8      40.929
2013    5       29     1  59    5.79   448.1    6.8      40.948
2013    5       29     2   5    5.79   448.2    6.8      40.967
2013    5       29     2  11    5.79   448.3    6.8      40.986
2013    5       29     2  18    5.79   448.4    6.8      41.005
2013    5       29     2  24    5.79   448.6    6.8      41.024
2013    5       29     2  30    5.78   448.7    6.8      41.043
2013    5       29     2  36    5.78   448.8    6.8      41.061
2013    5       29     2  43    5.78   449.0    6.8      41.080
2013    5       29     2  49    5.78   449.1    6.8      41.099
2013    5       29     2  55    5.78   449.2    6.8      41.117
2013    5       29     3   2    5.78   449.4    6.8      41.135
2013    5       29     3   8    5.78   449.5    6.7      41.154
2013    5       29     3  14    5.78   449.6    6.7      41.172
2013    5       29     3  20    5.78   449.8    6.7      41.190
2013    5       29     3  27    5.78   449.9    6.7      41.208
2013    5       29     3  33    5.78   450.0    6.7      41.226
2013    5       29     3  39    5.78   450.1    6.7      41.244
2013    5       29     3  45    5.78   450.3    6.7      41.262
2013    5       29     3  52    5.78   450.4    6.7      41.281
2013    5       29     3  58    5.78   450.5    6.7      41.299
2013    5       29     4   4    5.78   450.7    6.7      41.317
2013    5       29     4  11    5.78   450.8    6.7      41.336
2013    5       29     4  17    5.78   450.9    6.7      41.354
2013    5       29     4  23    5.78   451.1    6.7      41.373
2013    5       29     4  29    5.78   451.2    6.7      41.392
2013    5       29     4  36    5.78   451.4    6.7      41.412
2013    5       29     4  42    5.78   451.5    6.7      41.432
2013    5       29     4  48    5.78   451.6    6.7      41.452
2013    5       29     4  54    5.78   451.8    6.7      41.472
2013    5       29     5   1    5.78   451.9    6.7      41.493
2013    5       29     5   7    5.78   452.0    6.7      41.513
2013    5       29     5  13    5.77   452.2    6.7      41.533
2013    5       29     5  19    5.77   452.3    6.7      41.553
2013    5       29     5  26    5.77   452.5    6.7      41.572
2013    5       29     5  32    5.77   452.6    6.7      41.592
2013    5       29     5  38    5.77   452.7    6.7      41.611
2013    5       29     5  44    5.77   452.9    6.6      41.630
2013    5       29     5  50    5.77   453.0    6.6      41.649
2013    5       29     5  57    5.77   453.2    6.6      41.667
2013    5       29     6   3    5.77   453.3    6.6      41.686
2013    5       29     6   9    5.77   453.4    6.6      41.705
2013    5       29     6  15    5.77   453.6    6.6      41.723
2013    5       29     6  22    5.77   453.7    6.6      41.742
2013    5       29     6  28    5.77   453.9    6.6      41.760
2013    5       29     6  34    5.77   454.0    6.6      41.778
2013    5       29     6  40    5.76   454.1    6.6      41.796
2013    5       29     6  46    5.76   454.3    6.6      41.814
2013    5       29     6  52    5.76   454.4    6.6      41.832
2013    5       29     6  59    5.76   454.6    6.6      41.849
2013    5       29     7   5    5.76   454.7    6.6      41.867
2013    5       29     7  11    5.76   454.8    6.6      41.884
2013    5       29     7  17    5.76   455.0    6.6      41.902
2013    5       29     7  23    5.76   455.1    6.6      41.919
2013    5       29     7  29    5.76   455.3    6.6      41.937
2013    5       29     7  36    5.76   455.4    6.6      41.955
2013    5       29     7  42    5.76   455.5    6.6      41.972
2013    5       29     7  48    5.76   455.7    6.6      41.990
2013    5       29     7  54    5.75   455.8    6.5      42.008
2013    5       29     8   0    5.75   456.0    6.5      42.027
2013    5       29     8   7    5.75   456.1    6.5      42.045
2013    5       29     8  13    5.75   456.2    6.5      42.065
2013    5       29     8  19    5.75   456.4    6.5      42.084
2013    5       29     8  25    5.75   456.5    6.5      42.105
2013    5       29     8  31    5.75   456.7    6.5      42.125
2013    5       29     8  38    5.75   456.8    6.5      42.146
2013    5       29     8  44    5.75   457.0    6.5      42.166
2013    5       29     8  50    5.75   457.1    6.5      42.187
2013    5       29     8  56    5.75   457.3    6.5      42.207
2013    5       29     9   3    5.75   457.4    6.5      42.227
2013    5       29     9   9    5.75   457.6    6.5      42.248
2013    5       29     9  15    5.74   457.7    6.5      42.268
2013    5       29     9  21    5.74   457.9    6.5      42.288
2013    5       29     9  27    5.74   458.0    6.5      42.307
2013    5       29     9  34    5.74   458.2    6.5      42.327
2013    5       29     9  40    5.74   458.4    6.5      42.347
2013    5       29     9  46    5.74   458.5    6.5      42.366
2013    5       29     9  52    5.74   458.7    6.5      42.386
2013    5       29     9  59    5.74   458.8    6.5      42.405
2013    5       29    10   5    5.74   459.0    6.4      42.425
2013    5       29    10  11    5.74   459.1    6.4      42.444
2013    5       29    10  17    5.74   459.3    6.4      42.464
2013    5       29    10  24    5.73   459.4    6.4      42.484
2013    5       29    10  30    5.73   459.6    6.4      42.504
2013    5       29    10  36    5.73   459.7    6.4      42.523
2013    5       29    10  43    5.73   459.9    6.4      42.543
2013    5       29    10  49    5.73   460.1    6.4      42.562
2013    5       29    10  55    5.73   460.2    6.4      42.582
2013    5       29    11   1    5.73   460.4    6.4      42.602
2013    5       29    11   8    5.73   460.5    6.4      42.622
2013    5       29    11  14    5.73   460.7    6.4      42.642
2013    5       29    11  20    5.72   460.8    6.4      42.662
2013    5       29    11  26    5.72   461.0    6.4      42.683
2013    5       29    11  33    5.72   461.2    6.4      42.704
2013    5       29    11  39    5.72   461.3    6.4      42.725
2013    5       29    11  45    5.72   461.5    6.4      42.746
2013    5       29    11  52    5.72   461.7    6.4      42.768
2013    5       29    11  58    5.72   461.8    6.4      42.790
2013    5       29    12   4    5.72   462.0    6.4      42.812
2013    5       29    12  10    5.71   462.1    6.3      42.834
2013    5       29    12  17    5.71   462.3    6.3      42.856
2013    5       29    12  23    5.71   462.5    6.3      42.877
2013    5       29    12  29    5.71   462.6    6.3      42.898
2013    5       29    12  35    5.71   462.8    6.3      42.919
2013    5       29    12  42    5.71   463.0    6.3      42.939
2013    5       29    12  48    5.71   463.1    6.3      42.960
2013    5       29    12  54    5.70   463.3    6.3      42.980
2013    5       29    13   0    5.70   463.5    6.3      43.001
2013    5       29    13   6    5.70   463.6    6.3      43.021
2013    5       29    13  13    5.70   463.8    6.3      43.041
2013    5       29    13  19    5.70   464.0    6.3      43.062
2013    5       29    13  25    5.70   464.1    6.3      43.082
2013    5       29    13  31    5.69   464.3    6.3      43.102
2013    5       29    13  37    5.69   464.5    6.3      43.122
2013    5       29    13  44    5.69   464.6    6.3      43.141
2013    5       29    13  50    5.69   464.8    6.3      43.160
2013    5       29    13  56    5.69   465.0    6.3      43.180
2013    5       29    14   2    5.68   465.1    6.2      43.199
2013    5       29    14   8    5.68   465.3    6.2      43.218
2013    5       29    14  15    5.68   465.4    6.2      43.236
2013    5       29    14  21    5.68   465.6    6.2      43.255
2013    5       29    14  27    5.68   465.8    6.2      43.273
2013    5       29    14  33    5.68   465.9    6.2      43.292
2013    5       29    14  39    5.67   466.1    6.2      43.311
2013    5       29    14  45    5.67   466.3    6.2      43.330
2013    5       29    14  52    5.67   466.4    6.2      43.349
2013    5       29    14  58    5.67   466.6    6.2      43.368
2013    5       29    15   4    5.67   466.8    6.2      43.387
2013    5       29    15  10    5.66   467.0    6.2      43.406
2013    5       29    15  16    5.66   467.1    6.2      43.424
2013    5       29    15  23    5.66   467.3    6.2      43.442
2013    5       29    15  29    5.66   467.5    6.2      43.460
2013    5       29    15  35    5.65   467.6    6.2      43.477
2013    5       29    15  41    5.65   467.8    6.1      43.494
2013    5       29    15  47    5.65   468.0    6.1      43.511
2013    5       29    15  54    5.65   468.1    6.1      43.527
2013    5       29    16   0    5.65   468.3    6.1      43.543
2013    5       29    16   6    5.64   468.5    6.1      43.559
2013    5       29    16  12    5.64   468.6    6.1      43.575
2013    5       29    16  19    5.64   468.8    6.1      43.590
2013    5       29    16  25    5.64   469.0    6.1      43.605
2013    5       29    16  31    5.63   469.1    6.1      43.620
2013    5       29    16  37    5.63   469.3    6.1      43.635
2013    5       29    16  43    5.63   469.5    6.1      43.650
2013    5       29    16  50    5.63   469.6    6.1      43.664
2013    5       29    16  56    5.62   469.8    6.1      43.679
2013    5       29    17   2    5.62   470.0    6.1      43.693
2013    5       29    17   8    5.62   470.1    6.1      43.707
2013    5       29    17  15    5.62   470.3    6.0      43.721
2013    5       29    17  21    5.61   470.5    6.0      43.735
2013    5       29    17  27    5.61   470.6    6.0      43.750
2013    5       29    17  33    5.61   470.8    6.0      43.764
2013    5       29    17  40    5.61   470.9    6.0      43.778
2013    5       29    17  46    5.60   471.1    6.0      43.793
2013    5       29    17  52    5.60   471.3    6.0      43.807
2013    5       29    17  59    5.60   471.4    6.0      43.822
2013    5       29    18   5    5.60   471.6    6.0      43.837
2013    5       29    18  11    5.59   471.8    6.0      43.853
2013    5       29    18  17    5.59   471.9    6.0      43.869
2013    5       29    18  24    5.59   472.1    6.0      43.886
2013    5       29    18  30    5.59   472.3    6.0      43.903
2013    5       29    18  36    5.58   472.4    6.0      43.921
2013    5       29    18  42    5.58   472.6    6.0      43.940
2013    5       29    18  49    5.58   472.8    6.0      43.959
2013    5       29    18  55    5.58   472.9    5.9      43.979
2013    5       29    19   1    5.57   473.1    5.9      43.998
2013    5       29    19   8    5.57   473.3    5.9      44.016
2013    5       29    19  14    5.57   473.5    5.9      44.034
2013    5       29    19  20    5.56   473.6    5.9      44.052
2013    5       29    19  26    5.56   473.8    5.9      44.070
2013    5       29    19  33    5.56   474.0    5.9      44.087
2013    5       29    19  39    5.55   474.1    5.9      44.103
2013    5       29    19  45    5.55   474.3    5.9      44.119
2013    5       29    19  51    5.55   474.5    5.9      44.135
2013    5       29    19  58    5.54   474.7    5.9      44.150
2013    5       29    20   4    5.54   474.8    5.9      44.165
2013    5       29    20  10    5.54   475.0    5.9      44.180
2013    5       29    20  16    5.53   475.2    5.9      44.194
2013    5       29    20  22    5.53   475.3    5.9      44.207
2013    5       29    20  29    5.53   475.5    5.8      44.221
2013    5       29    20  35    5.52   475.7    5.8      44.234
2013    5       29    20  41    5.52   475.8    5.8      44.247
2013    5       29    20  47    5.52   476.0    5.8      44.259
2013    5       29    20  53    5.51   476.2    5.8      44.271
2013    5       29    21   0    5.51   476.3    5.8      44.283
2013    5       29    21   6    5.51   476.5    5.8      44.294
2013    5       29    21  12    5.50   476.7    5.8      44.305
2013    5       29    21  18    5.50   476.8    5.8      44.316
2013    5       29    21  24    5.50   477.0    5.8      44.327
2013    5       29    21  30    5.49   477.1    5.8      44.337
2013    5       29    21  37    5.49   477.3    5.8      44.347
2013    5       29    21  43    5.49   477.5    5.8      44.357
2013    5       29    21  49    5.48   477.6    5.8      44.366
2013    5       29    21  55    5.48   477.8    5.7      44.375
2013    5       29    22   1    5.47   477.9    5.7      44.384
2013    5       29    22   8    5.47   478.1    5.7      44.392
2013    5       29    22  14    5.47   478.3    5.7      44.401
2013    5       29    22  20    5.46   478.4    5.7      44.409
2013    5       29    22  26    5.46   478.6    5.7      44.416
2013    5       29    22  32    5.46   478.7    5.7      44.424
2013    5       29    22  39    5.45   478.9    5.7      44.431
2013    5       29    22  45    5.45   479.1    5.7      44.438
2013    5       29    22  51    5.44   479.2    5.7      44.444
2013    5       29    22  57    5.44   479.4    5.7      44.451
2013    5       29    23   3    5.44   479.5    5.7      44.457
2013    5       29    23  10    5.43   479.7    5.7      44.462
2013    5       29    23  16    5.43   479.8    5.7      44.468
2013    5       29    23  22    5.42   480.0    5.6      44.473
2013    5       29    23  28    5.42   480.1    5.6      44.479
2013    5       29    23  34    5.41   480.3    5.6      44.483
2013    5       29    23  41    5.41   480.4    5.6      44.488
2013    5       29    23  47    5.41   480.6    5.6      44.492
2013    5       29    23  53    5.40   480.7    5.6      44.497
2013    5       29    23  59    5.40   480.9    5.6      44.501
2013    5       30     0   6    5.39   481.0    5.6      44.505
2013    5       30     0  12    5.39   481.1    5.6      44.508
2013    5       30     0  18    5.39   481.3    5.6      44.512
2013    5       30     0  24    5.38   481.4    5.6      44.515
2013    5       30     0  31    5.38   481.6    5.6      44.518
2013    5       30     0  37    5.37   481.7    5.6      44.521
2013    5       30     0  43    5.37   481.8    5.6      44.525
2013    5       30     0  49    5.36   482.0    5.5      44.527
2013    5       30     0  56    5.36   482.1    5.5      44.530
2013    5       30     1   2    5.36   482.2    5.5      44.533
2013    5       30     1   8    5.35   482.4    5.5      44.536
2013    5       30     1  14    5.35   482.5    5.5      44.538
2013    5       30     1  21    5.34   482.6    5.5      44.540
2013    5       30     1  27    5.34   482.8    5.5      44.542
2013    5       30     1  33    5.33   482.9    5.5      44.544
2013    5       30     1  40    5.33   483.0    5.5      44.546
2013    5       30     1  46    5.32   483.2    5.5      44.547
2013    5       30     1  52    5.32   483.3    5.5      44.548
2013    5       30     1  58    5.32   483.4    5.5      44.549
2013    5       30     2   5    5.31   483.5    5.5      44.549
2013    5       30     2  11    5.31   483.7    5.5      44.550
2013    5       30     2  17    5.30   483.8    5.5      44.550
2013    5       30     2  23    5.30   483.9    5.4      44.550
2013    5       30     2  30    5.29   484.0    5.4      44.550
2013    5       30     2  36    5.29   484.2    5.4      44.550
2013    5       30     2  42    5.28   484.3    5.4      44.549
2013    5       30     2  49    5.28   484.4    5.4      44.548
2013    5       30     2  55    5.27   484.5    5.4      44.547
2013    5       30     3   1    5.27   484.6    5.4      44.546
2013    5       30     3   7    5.27   484.8    5.4      44.545
2013    5       30     3  13    5.26   484.9    5.4      44.544
2013    5       30     3  20    5.26   485.0    5.4      44.542
2013    5       30     3  26    5.25   485.1    5.4      44.541
2013    5       30     3  32    5.25   485.2    5.4      44.539
2013    5       30     3  38    5.24   485.3    5.4      44.537
2013    5       30     3  45    5.24   485.4    5.4      44.535
2013    5       30     3  51    5.23   485.6    5.4      44.533
2013    5       30     3  57    5.23   485.7    5.3      44.531
2013    5       30     4   3    5.23   485.8    5.3      44.528
2013    5       30     4   9    5.22   485.9    5.3      44.525
2013    5       30     4  16    5.22   486.0    5.3      44.523
2013    5       30     4  22    5.21   486.1    5.3      44.519
2013    5       30     4  28    5.21   486.2    5.3      44.516
2013    5       30     4  34    5.20   486.3    5.3      44.512
2013    5       30     4  40    5.20   486.4    5.3      44.508
2013    5       30     4  46    5.19   486.6    5.3      44.504
2013    5       30     4  53    5.19   486.7    5.3      44.500
2013    5       30     4  59    5.19   486.8    5.3      44.495
2013    5       30     5   5    5.18   486.9    5.3      44.490
2013    5       30     5  11    5.18   487.0    5.3      44.485
2013    5       30     5  17    5.17   487.1    5.3      44.479
2013    5       30     5  24    5.17   487.2    5.3      44.473
2013    5       30     5  30    5.16   487.3    5.3      44.467
2013    5       30     5  36    5.16   487.4    5.3      44.460
2013    5       30     5  42    5.15   487.5    5.2      44.454
2013    5       30     5  48    5.15   487.6    5.2      44.446
2013    5       30     5  55    5.14   487.7    5.2      44.439
2013    5       30     6   1    5.14   487.8    5.2      44.431
2013    5       30     6   7    5.13   487.9    5.2      44.423
2013    5       30     6  13    5.13   488.0    5.2      44.415
2013    5       30     6  19    5.12   488.1    5.2      44.406
2013    5       30     6  26    5.12   488.2    5.2      44.397
2013    5       30     6  32    5.12   488.3    5.2      44.388
2013    5       30     6  38    5.11   488.4    5.2      44.379
2013    5       30     6  44    5.11   488.5    5.2      44.369
2013    5       30     6  50    5.10   488.6    5.2      44.359
2013    5       30     6  57    5.10   488.7    5.2      44.348
2013    5       30     7   3    5.09   488.7    5.2      44.338
2013    5       30     7   9    5.09   488.8    5.2      44.327
2013    5       30     7  15    5.08   488.9    5.2      44.315
2013    5       30     7  22    5.08   489.0    5.1      44.304
2013    5       30     7  28    5.07   489.1    5.1      44.292
2013    5       30     7  34    5.07   489.2    5.1      44.280
2013    5       30     7  40    5.06   489.3    5.1      44.267
2013    5       30     7  47    5.06   489.3    5.1      44.255
2013    5       30     7  53    5.05   489.4    5.1      44.242
2013    5       30     7  59    5.05   489.5    5.1      44.229
2013    5       30     8   5    5.04   489.6    5.1      44.215
2013    5       30     8  12    5.04   489.7    5.1      44.202
2013    5       30     8  18    5.03   489.7    5.1      44.188
2013    5       30     8  24    5.03   489.8    5.1      44.174
2013    5       30     8  30    5.02   489.9    5.1      44.159
2013    5       30     8  37    5.02   490.0    5.1      44.145
2013    5       30     8  43    5.01   490.0    5.1      44.131
2013    5       30     8  49    5.01   490.1    5.1      44.116
2013    5       30     8  56    5.00   490.2    5.1      44.101
2013    5       30     9   2    5.00   490.2    5.1      44.086
2013    5       30     9   8    4.99   490.3    5.0      44.071
2013    5       30     9  14    4.99   490.4    5.0      44.057
2013    5       30     9  21    4.99   490.4    5.0      44.041
2013    5       30     9  27    4.98   490.5    5.0      44.027
2013    5       30     9  33    4.98   490.6    5.0      44.012
2013    5       30     9  39    4.97   490.6    5.0      43.997
2013    5       30     9  46    4.97   490.7    5.0      43.982
2013    5       30     9  52    4.96   490.7    5.0      43.967
2013    5       30     9  58    4.96   490.8    5.0      43.953
2013    5       30    10   4    4.95   490.9    5.0      43.938
2013    5       30    10  11    4.95   490.9    5.0      43.923
2013    5       30    10  17    4.94   491.0    5.0      43.909
2013    5       30    10  23    4.94   491.0    5.0      43.894
2013    5       30    10  29    4.93   491.1    5.0      43.880
2013    5       30    10  36    4.93   491.1    5.0      43.865
2013    5       30    10  42    4.93   491.2    5.0      43.851
2013    5       30    10  48    4.92   491.2    5.0      43.836
2013    5       30    10  54    4.92   491.3    5.0      43.822
2013    5       30    11   1    4.91   491.3    5.0      43.807
2013    5       30    11   7    4.91   491.4    5.0      43.792
2013    5       30    11  13    4.90   491.4    5.0      43.777
2013    5       30    11  19    4.90   491.5    4.9      43.763
2013    5       30    11  25    4.89   491.5    4.9      43.747
2013    5       30    11  32    4.89   491.6    4.9      43.732
2013    5       30    11  38    4.89   491.6    4.9      43.716
2013    5       30    11  44    4.88   491.6    4.9      43.701
2013    5       30    11  50    4.88   491.7    4.9      43.685
2013    5       30    11  56    4.87   491.7    4.9      43.669
2013    5       30    12   2    4.87   491.8    4.9      43.653
2013    5       30    12   9    4.86   491.8    4.9      43.637
2013    5       30    12  15    4.86   491.8    4.9      43.620
2013    5       30    12  21    4.86   491.9    4.9      43.604
2013    5       30    12  27    4.85   491.9    4.9      43.587
2013    5       30    12  33    4.85   492.0    4.9      43.570
2013    5       30    12  40    4.84   492.0    4.9      43.552
2013    5       30    12  46    4.84   492.0    4.9      43.534
2013    5       30    12  52    4.83   492.1    4.9      43.516
2013    5       30    12  58    4.83   492.1    4.9      43.498
2013    5       30    13   4    4.82   492.1    4.9      43.479
2013    5       30    13  10    4.82   492.2    4.9      43.460
2013    5       30    13  17    4.82   492.2    4.9      43.441
2013    5       30    13  23    4.81   492.2    4.9      43.422
2013    5       30    13  29    4.81   492.3    4.9      43.402
2013    5       30    13  35    4.80   492.3    4.9      43.382
2013    5       30    13  42    4.80   492.3    4.8      43.361
2013    5       30    13  48    4.79   492.4    4.8      43.341
2013    5       30    13  54    4.79   492.4    4.8      43.320
2013    5       30    14   0    4.79   492.4    4.8      43.298
2013    5       30    14   6    4.78   492.4    4.8      43.277
2013    5       30    14  13    4.78   492.5    4.8      43.255
2013    5       30    14  19    4.77   492.5    4.8      43.233
2013    5       30    14  25    4.77   492.5    4.8      43.210
2013    5       30    14  31    4.76   492.5    4.8      43.188
2013    5       30    14  38    4.76   492.6    4.8      43.165
2013    5       30    14  44    4.75   492.6    4.8      43.142
2013    5       30    14  50    4.75   492.6    4.8      43.119
2013    5       30    14  56    4.75   492.6    4.8      43.095
2013    5       30    15   3    4.74   492.7    4.8      43.072
2013    5       30    15   9    4.74   492.7    4.8      43.048
2013    5       30    15  15    4.73   492.7    4.8      43.025
2013    5       30    15  21    4.73   492.7    4.8      43.001
2013    5       30    15  28    4.72   492.7    4.8      42.978
2013    5       30    15  34    4.72   492.7    4.8      42.954
2013    5       30    15  40    4.72   492.8    4.8      42.931
2013    5       30    15  46    4.71   492.8    4.8      42.908
2013    5       30    15  53    4.71   492.8    4.8      42.885
2013    5       30    15  59    4.70   492.8    4.8      42.861
2013    5       30    16   5    4.70   492.8    4.7      42.839
2013    5       30    16  12    4.69   492.8    4.7      42.816
2013    5       30    16  18    4.69   492.8    4.7      42.793
2013    5       30    16  24    4.69   492.8    4.7      42.770
2013    5       30    16  30    4.68   492.8    4.7      42.748
2013    5       30    16  37    4.68   492.8    4.7      42.726
2013    5       30    16  43    4.67   492.8    4.7      42.705
2013    5       30    16  49    4.67   492.8    4.7      42.683
2013    5       30    16  55    4.66   492.8    4.7      42.662
2013    5       30    17   2    4.66   492.8    4.7      42.641
2013    5       30    17   8    4.66   492.8    4.7      42.620
2013    5       30    17  14    4.65   492.9    4.7      42.600
2013    5       30    17  20    4.65   492.9    4.7      42.579
2013    5       30    17  27    4.64   492.8    4.7      42.559
2013    5       30    17  33    4.64   492.8    4.7      42.539
2013    5       30    17  39    4.64   492.8    4.7      42.519
2013    5       30    17  45    4.63   492.8    4.7      42.499
2013    5       30    17  52    4.63   492.8    4.7      42.479
2013    5       30    17  58    4.62   492.8    4.7      42.459
2013    5       30    18   4    4.62   492.8    4.7      42.439
2013    5       30    18  10    4.62   492.8    4.7      42.420
2013    5       30    18  17    4.61   492.8    4.7      42.400
2013    5       30    18  23    4.61   492.8    4.7      42.380
2013    5       30    18  29    4.60   492.8    4.7      42.360
2013    5       30    18  35    4.60   492.8    4.7      42.340
2013    5       30    18  41    4.60   492.8    4.7      42.320
2013    5       30    18  48    4.59   492.7    4.7      42.300
2013    5       30    18  54    4.59   492.7    4.7      42.279
2013    5       30    19   0    4.58   492.7    4.7      42.259
2013    5       30    19   6    4.58   492.7    4.7      42.238
2013    5       30    19  12    4.58   492.7    4.7      42.218
2013    5       30    19  18    4.57   492.7    4.6      42.197
2013    5       30    19  25    4.57   492.6    4.6      42.176
2013    5       30    19  31    4.56   492.6    4.6      42.154
2013    5       30    19  37    4.56   492.6    4.6      42.133
2013    5       30    19  43    4.56   492.6    4.6      42.111
2013    5       30    19  49    4.55   492.6    4.6      42.089
2013    5       30    19  56    4.55   492.5    4.6      42.067
2013    5       30    20   2    4.54   492.5    4.6      42.044
2013    5       30    20   8    4.54   492.5    4.6      42.021
2013    5       30    20  14    4.54   492.5    4.6      41.999
2013    5       30    20  20    4.53   492.4    4.6      41.975
2013    5       30    20  26    4.53   492.4    4.6      41.952
2013    5       30    20  33    4.52   492.4    4.6      41.928
2013    5       30    20  39    4.52   492.4    4.6      41.905
2013    5       30    20  45    4.52   492.3    4.6      41.880
2013    5       30    20  51    4.51   492.3    4.6      41.856
2013    5       30    20  58    4.51   492.3    4.6      41.832
2013    5       30    21   4    4.51   492.3    4.6      41.807
2013    5       30    21  10    4.50   492.2    4.6      41.782
2013    5       30    21  16    4.50   492.2    4.6      41.757
2013    5       30    21  22    4.49   492.2    4.6      41.732
2013    5       30    21  29    4.49   492.1    4.6      41.707
2013    5       30    21  35    4.49   492.1    4.6      41.681
2013    5       30    21  41    4.48   492.1    4.6      41.655
2013    5       30    21  47    4.48   492.0    4.6      41.629
2013    5       30    21  53    4.47   492.0    4.6      41.603
2013    5       30    22   0    4.47   491.9    4.6      41.576
2013    5       30    22   6    4.47   491.9    4.6      41.550
2013    5       30    22  12    4.46   491.9    4.6      41.524
2013    5       30    22  18    4.46   491.8    4.6      41.497
2013    5       30    22  25    4.45   491.8    4.6      41.470
2013    5       30    22  31    4.45   491.7    4.6      41.444
2013    5       30    22  37    4.45   491.7    4.6      41.417
2013    5       30    22  44    4.44   491.7    4.6      41.391
2013    5       30    22  50    4.44   491.6    4.5      41.364
2013    5       30    22  56    4.44   491.6    4.5      41.337
2013    5       30    23   2    4.43   491.5    4.5      41.310
2013    5       30    23   9    4.43   491.5    4.5      41.284
2013    5       30    23  15    4.42   491.4    4.5      41.257
2013    5       30    23  21    4.42   491.4    4.5      41.231
2013    5       30    23  27    4.42   491.3    4.5      41.204
2013    5       30    23  34    4.41   491.3    4.5      41.178
2013    5       30    23  40    4.41   491.2    4.5      41.151
2013    5       30    23  46    4.41   491.2    4.5      41.125
2013    5       30    23  53    4.40   491.1    4.5      41.099
2013    5       30    23  59    4.40   491.1    4.5      41.073
2013    5       31     0   5    4.39   491.0    4.5      41.047
