year    month   day   hour  minute  B_enl V_enl   n_enl       T_enl
[year] [month] [day] [hour][minute] [nT]  [km/s]  [cm-3]      [kK]
2013    5       31     0   1    3.67   390.3    6.8      29.184
2013    5       31     0   7    3.68   390.2    6.8      29.188
2013    5       31     0  14    3.68   390.0    6.8      29.191
2013    5       31     0  20    3.69   389.9    6.8      29.196
2013    5       31     0  27    3.70   389.7    6.8      29.200
2013    5       31     0  33    3.70   389.6    6.9      29.205
2013    5       31     0  40    3.71   389.4    6.9      29.210
2013    5       31     0  46    3.71   389.3    6.9      29.216
2013    5       31     0  52    3.72   389.1    6.9      29.222
2013    5       31     0  59    3.73   389.0    6.9      29.228
2013    5       31     1   5    3.73   388.8    6.9      29.235
2013    5       31     1  12    3.74   388.7    6.9      29.242
2013    5       31     1  18    3.75   388.5    7.0      29.250
2013    5       31     1  25    3.75   388.4    7.0      29.258
2013    5       31     1  31    3.76   388.2    7.0      29.266
2013    5       31     1  38    3.77   388.1    7.0      29.275
2013    5       31     1  44    3.77   387.9    7.0      29.284
2013    5       31     1  50    3.78   387.8    7.0      29.294
2013    5       31     1  57    3.79   387.6    7.1      29.304
2013    5       31     2   3    3.80   387.5    7.1      29.315
2013    5       31     2  10    3.81   387.3    7.1      29.326
2013    5       31     2  16    3.81   387.2    7.1      29.338
2013    5       31     2  23    3.82   387.0    7.1      29.350
2013    5       31     2  29    3.83   386.9    7.1      29.362
2013    5       31     2  35    3.84   386.7    7.2      29.375
2013    5       31     2  42    3.85   386.6    7.2      29.389
2013    5       31     2  48    3.85   386.4    7.2      29.403
2013    5       31     2  55    3.86   386.2    7.2      29.418
2013    5       31     3   1    3.87   386.1    7.2      29.434
2013    5       31     3   8    3.88   385.9    7.2      29.450
2013    5       31     3  14    3.89   385.8    7.3      29.467
2013    5       31     3  20    3.90   385.6    7.3      29.486
2013    5       31     3  27    3.90   385.4    7.3      29.505
2013    5       31     3  33    3.91   385.3    7.3      29.526
2013    5       31     3  40    3.92   385.1    7.3      29.547
2013    5       31     3  46    3.93   384.9    7.4      29.570
2013    5       31     3  53    3.94   384.8    7.4      29.594
2013    5       31     3  59    3.95   384.6    7.4      29.620
2013    5       31     4   5    3.96   384.5    7.4      29.647
2013    5       31     4  12    3.97   384.3    7.5      29.675
2013    5       31     4  18    3.98   384.2    7.5      29.705
2013    5       31     4  25    3.99   384.0    7.5      29.736
2013    5       31     4  31    4.00   383.9    7.5      29.768
2013    5       31     4  38    4.01   383.7    7.5      29.802
2013    5       31     4  44    4.02   383.6    7.6      29.838
2013    5       31     4  50    4.03   383.5    7.6      29.874
2013    5       31     4  57    4.04   383.3    7.6      29.912
2013    5       31     5   3    4.05   383.2    7.6      29.950
2013    5       31     5  10    4.06   383.1    7.7      29.990
2013    5       31     5  16    4.07   383.0    7.7      30.030
2013    5       31     5  23    4.08   382.9    7.7      30.071
2013    5       31     5  29    4.09   382.7    7.7      30.113
2013    5       31     5  36    4.10   382.6    7.8      30.156
2013    5       31     5  42    4.11   382.5    7.8      30.199
2013    5       31     5  48    4.12   382.4    7.8      30.244
2013    5       31     5  55    4.13   382.3    7.8      30.288
2013    5       31     6   1    4.15   382.2    7.9      30.334
2013    5       31     6   8    4.16   382.1    7.9      30.380
2013    5       31     6  14    4.17   382.0    7.9      30.426
2013    5       31     6  21    4.18   381.9    8.0      30.473
2013    5       31     6  27    4.20   381.9    8.0      30.521
2013    5       31     6  34    4.21   381.8    8.0      30.570
2013    5       31     6  40    4.22   381.7    8.0      30.619
2013    5       31     6  46    4.24   381.6    8.1      30.669
2013    5       31     6  53    4.25   381.6    8.1      30.720
2013    5       31     6  59    4.27   381.5    8.1      30.771
2013    5       31     7   6    4.28   381.4    8.2      30.824
2013    5       31     7  12    4.30   381.4    8.2      30.877
2013    5       31     7  19    4.32   381.3    8.2      30.932
2013    5       31     7  25    4.33   381.3    8.3      30.988
2013    5       31     7  32    4.35   381.2    8.3      31.045
2013    5       31     7  38    4.37   381.2    8.3      31.103
2013    5       31     7  44    4.39   381.1    8.4      31.164
2013    5       31     7  51    4.41   381.1    8.4      31.229
2013    5       31     7  57    4.43   381.1    8.5      31.297
2013    5       31     8   4    4.45   381.1    8.5      31.369
2013    5       31     8  10    4.47   381.1    8.6      31.445
2013    5       31     8  17    4.49   381.1    8.6      31.529
2013    5       31     8  23    4.51   381.2    8.7      31.622
2013    5       31     8  29    4.53   381.2    8.7      31.723
2013    5       31     8  36    4.55   381.3    8.8      31.829
2013    5       31     8  42    4.58   381.4    8.8      31.940
2013    5       31     8  49    4.60   381.5    8.9      32.055
2013    5       31     8  55    4.62   381.6    8.9      32.173
2013    5       31     9   2    4.64   381.6    8.9      32.289
2013    5       31     9   8    4.66   381.7    9.0      32.402
2013    5       31     9  15    4.68   381.8    9.0      32.512
2013    5       31     9  21    4.70   381.9    9.1      32.620
2013    5       31     9  27    4.71   381.9    9.1      32.725
2013    5       31     9  34    4.73   382.0    9.1      32.827
2013    5       31     9  40    4.75   382.0    9.2      32.927
2013    5       31     9  47    4.77   382.1    9.2      33.024
2013    5       31     9  53    4.79   382.1    9.2      33.118
2013    5       31    10   0    4.80   382.2    9.3      33.209
2013    5       31    10   6    4.82   382.2    9.3      33.299
2013    5       31    10  12    4.84   382.3    9.3      33.387
2013    5       31    10  19    4.85   382.3    9.3      33.473
2013    5       31    10  25    4.87   382.3    9.4      33.558
2013    5       31    10  32    4.89   382.4    9.4      33.641
2013    5       31    10  38    4.90   382.4    9.4      33.724
2013    5       31    10  45    4.92   382.4    9.4      33.807
2013    5       31    10  51    4.93   382.5    9.5      33.888
2013    5       31    10  57    4.95   382.5    9.5      33.970
2013    5       31    11   4    4.97   382.5    9.5      34.051
2013    5       31    11  10    4.98   382.5    9.5      34.133
2013    5       31    11  17    5.00   382.6    9.6      34.214
2013    5       31    11  23    5.02   382.6    9.6      34.297
2013    5       31    11  30    5.03   382.6    9.6      34.379
2013    5       31    11  36    5.05   382.7    9.6      34.462
2013    5       31    11  42    5.07   382.7    9.7      34.546
2013    5       31    11  49    5.08   382.8    9.7      34.630
2013    5       31    11  55    5.10   382.8    9.7      34.715
2013    5       31    12   2    5.12   382.8    9.7      34.800
2013    5       31    12   8    5.13   382.9    9.8      34.886
2013    5       31    12  15    5.15   383.0    9.8      34.973
2013    5       31    12  21    5.17   383.0    9.8      35.060
2013    5       31    12  27    5.19   383.1    9.8      35.149
2013    5       31    12  34    5.20   383.1    9.9      35.239
2013    5       31    12  40    5.22   383.2    9.9      35.330
2013    5       31    12  47    5.24   383.3    9.9      35.422
2013    5       31    12  53    5.26   383.3   10.0      35.516
2013    5       31    13   0    5.28   383.4   10.0      35.612
2013    5       31    13   6    5.30   383.5   10.0      35.711
2013    5       31    13  12    5.32   383.6   10.0      35.812
2013    5       31    13  19    5.34   383.7   10.1      35.916
2013    5       31    13  25    5.36   383.8   10.1      36.022
2013    5       31    13  32    5.38   383.9   10.1      36.133
2013    5       31    13  38    5.40   384.0   10.2      36.247
2013    5       31    13  45    5.43   384.2   10.2      36.365
2013    5       31    13  51    5.45   384.3   10.3      36.488
2013    5       31    13  58    5.48   384.5   10.3      36.615
2013    5       31    14   4    5.50   384.6   10.3      36.747
2013    5       31    14  10    5.53   384.8   10.4      36.885
2013    5       31    14  17    5.55   385.0   10.4      37.030
2013    5       31    14  23    5.58   385.1   10.5      37.179
2013    5       31    14  30    5.61   385.3   10.5      37.333
2013    5       31    14  36    5.64   385.5   10.6      37.494
2013    5       31    14  43    5.67   385.8   10.7      37.667
2013    5       31    14  49    5.70   386.0   10.7      37.850
2013    5       31    14  55    5.73   386.2   10.8      38.040
2013    5       31    15   2    5.76   386.5   10.9      38.238
2013    5       31    15   8    5.80   386.8   11.0      38.448
2013    5       31    15  15    5.83   387.1   11.1      38.676
2013    5       31    15  21    5.86   387.4   11.1      38.916
2013    5       31    15  28    5.90   387.8   11.2      39.166
2013    5       31    15  34    5.93   388.2   11.3      39.427
2013    5       31    15  41    5.96   388.6   11.4      39.701
2013    5       31    15  47    5.99   389.1   11.5      39.983
2013    5       31    15  53    6.03   389.5   11.5      40.269
2013    5       31    16   0    6.06   390.0   11.6      40.551
2013    5       31    16   6    6.09   390.4   11.7      40.830
2013    5       31    16  13    6.11   390.8   11.7      41.102
2013    5       31    16  19    6.14   391.3   11.8      41.368
2013    5       31    16  26    6.17   391.7   11.9      41.625
2013    5       31    16  32    6.19   392.2   11.9      41.875
2013    5       31    16  38    6.22   392.6   11.9      42.116
2013    5       31    16  45    6.24   393.0   12.0      42.349
2013    5       31    16  51    6.26   393.4   12.0      42.573
2013    5       31    16  58    6.28   393.8   12.0      42.790
2013    5       31    17   4    6.31   394.2   12.1      42.999
2013    5       31    17  11    6.33   394.6   12.1      43.201
2013    5       31    17  17    6.35   395.0   12.1      43.396
2013    5       31    17  23    6.36   395.4   12.1      43.585
2013    5       31    17  30    6.38   395.8   12.1      43.768
2013    5       31    17  36    6.40   396.1   12.2      43.947
2013    5       31    17  43    6.42   396.5   12.2      44.120
2013    5       31    17  49    6.44   396.8   12.2      44.289
2013    5       31    17  56    6.46   397.2   12.2      44.454
2013    5       31    18   2    6.47   397.5   12.2      44.616
2013    5       31    18   8    6.49   397.8   12.2      44.775
2013    5       31    18  15    6.51   398.1   12.2      44.932
2013    5       31    18  21    6.53   398.4   12.2      45.088
2013    5       31    18  28    6.54   398.8   12.2      45.241
2013    5       31    18  34    6.56   399.1   12.2      45.393
2013    5       31    18  41    6.58   399.4   12.2      45.545
2013    5       31    18  47    6.60   399.7   12.2      45.695
2013    5       31    18  53    6.61   400.0   12.2      45.845
2013    5       31    19   0    6.63   400.3   12.2      45.995
2013    5       31    19   6    6.65   400.6   12.2      46.144
2013    5       31    19  13    6.67   400.9   12.2      46.293
2013    5       31    19  19    6.68   401.2   12.2      46.442
2013    5       31    19  26    6.70   401.5   12.2      46.591
2013    5       31    19  32    6.72   401.8   12.2      46.741
2013    5       31    19  39    6.74   402.1   12.2      46.892
2013    5       31    19  45    6.76   402.4   12.2      47.043
2013    5       31    19  51    6.78   402.7   12.2      47.196
2013    5       31    19  58    6.80   403.0   12.2      47.352
2013    5       31    20   4    6.82   403.4   12.2      47.510
2013    5       31    20  11    6.84   403.7   12.2      47.671
2013    5       31    20  17    6.86   404.0   12.2      47.835
2013    5       31    20  24    6.88   404.4   12.2      48.003
2013    5       31    20  30    6.90   404.7   12.2      48.174
2013    5       31    20  37    6.92   405.1   12.2      48.350
2013    5       31    20  43    6.94   405.4   12.2      48.528
2013    5       31    20  49    6.96   405.8   12.2      48.711
2013    5       31    20  56    6.99   406.2   12.2      48.897
2013    5       31    21   2    7.01   406.5   12.3      49.088
2013    5       31    21   9    7.03   406.9   12.3      49.281
2013    5       31    21  15    7.05   407.3   12.3      49.479
2013    5       31    21  22    7.08   407.7   12.3      49.679
2013    5       31    21  28    7.10   408.1   12.3      49.883
2013    5       31    21  34    7.13   408.5   12.3      50.090
2013    5       31    21  41    7.15   408.8   12.4      50.299
2013    5       31    21  47    7.17   409.2   12.4      50.507
2013    5       31    21  54    7.20   409.6   12.4      50.720
2013    5       31    22   0    7.22   410.0   12.5      50.940
2013    5       31    22   7    7.25   410.4   12.5      51.166
2013    5       31    22  13    7.27   410.8   12.6      51.393
2013    5       31    22  20    7.30   411.2   12.6      51.623
2013    5       31    22  26    7.32   411.6   12.6      51.863
2013    5       31    22  32    7.35   412.1   12.7      52.115
2013    5       31    22  39    7.37   412.5   12.7      52.375
2013    5       31    22  45    7.40   412.9   12.8      52.642
2013    5       31    22  52    7.42   413.4   12.8      52.915
2013    5       31    22  58    7.44   413.9   12.9      53.195
2013    5       31    23   5    7.46   414.3   12.9      53.484
2013    5       31    23  11    7.48   414.8   13.0      53.777
2013    5       31    23  17    7.51   415.3   13.0      54.071
2013    5       31    23  24    7.53   415.8   13.1      54.367
2013    5       31    23  30    7.55   416.4   13.1      54.665
2013    5       31    23  37    7.57   416.9   13.2      54.967
2013    5       31    23  43    7.59   417.5   13.2      55.267
2013    5       31    23  50    7.61   418.0   13.2      55.571
2013    5       31    23  56    7.63   418.6   13.3      55.880
2013    6        1     0   2    7.65   419.3   13.3      56.194
2013    6        1     0   9    7.67   419.9   13.3      56.510
2013    6        1     0  15    7.69   420.6   13.3      56.829
2013    6        1     0  22    7.71   421.3   13.4      57.153
2013    6        1     0  28    7.73   422.1   13.4      57.479
2013    6        1     0  35    7.75   422.8   13.4      57.798
2013    6        1     0  41    7.76   423.6   13.4      58.111
2013    6        1     0  47    7.78   424.3   13.4      58.416
2013    6        1     0  54    7.80   425.1   13.4      58.714
2013    6        1     1   0    7.81   425.8   13.4      59.006
2013    6        1     1   7    7.83   426.6   13.4      59.292
2013    6        1     1  13    7.85   427.3   13.4      59.571
2013    6        1     1  20    7.86   428.0   13.4      59.845
2013    6        1     1  26    7.87   428.7   13.4      60.113
2013    6        1     1  32    7.89   429.5   13.4      60.379
2013    6        1     1  39    7.90   430.2   13.4      60.641
2013    6        1     1  45    7.92   430.9   13.3      60.904
2013    6        1     1  52    7.93   431.6   13.3      61.165
2013    6        1     1  58    7.94   432.2   13.3      61.426
2013    6        1     2   5    7.95   432.9   13.3      61.688
2013    6        1     2  11    7.97   433.6   13.3      61.954
2013    6        1     2  17    7.98   434.3   13.2      62.221
2013    6        1     2  24    7.99   435.0   13.2      62.492
2013    6        1     2  30    8.01   435.6   13.2      62.766
2013    6        1     2  37    8.02   436.3   13.2      63.045
2013    6        1     2  43    8.03   437.0   13.2      63.329
2013    6        1     2  50    8.05   437.7   13.1      63.621
2013    6        1     2  56    8.06   438.4   13.1      63.919
2013    6        1     3   3    8.07   439.1   13.1      64.226
2013    6        1     3   9    8.09   439.8   13.1      64.540
2013    6        1     3  15    8.10   440.5   13.1      64.865
2013    6        1     3  22    8.12   441.2   13.0      65.198
2013    6        1     3  28    8.13   441.9   13.0      65.539
2013    6        1     3  35    8.14   442.7   13.0      65.885
2013    6        1     3  41    8.16   443.4   13.0      66.239
2013    6        1     3  48    8.17   444.2   12.9      66.596
2013    6        1     3  54    8.19   444.9   12.9      66.956
2013    6        1     4   1    8.20   445.7   12.9      67.316
2013    6        1     4   7    8.21   446.4   12.9      67.679
2013    6        1     4  13    8.23   447.2   12.9      68.040
2013    6        1     4  20    8.24   448.0   12.8      68.400
2013    6        1     4  26    8.25   448.8   12.8      68.758
2013    6        1     4  33    8.27   449.5   12.8      69.113
2013    6        1     4  39    8.28   450.3   12.8      69.463
2013    6        1     4  46    8.29   451.1   12.7      69.808
2013    6        1     4  52    8.30   451.9   12.7      70.146
2013    6        1     4  58    8.31   452.7   12.7      70.478
2013    6        1     5   5    8.32   453.5   12.7      70.800
2013    6        1     5  11    8.33   454.4   12.7      71.115
2013    6        1     5  18    8.34   455.2   12.6      71.419
2013    6        1     5  24    8.35   456.0   12.6      71.714
2013    6        1     5  31    8.36   456.8   12.6      71.998
2013    6        1     5  37    8.37   457.6   12.6      72.272
2013    6        1     5  44    8.38   458.4   12.5      72.535
2013    6        1     5  50    8.38   459.2   12.5      72.789
2013    6        1     5  56    8.39   460.0   12.5      73.033
2013    6        1     6   3    8.40   460.8   12.5      73.269
2013    6        1     6   9    8.40   461.6   12.5      73.497
2013    6        1     6  16    8.41   462.4   12.4      73.719
2013    6        1     6  22    8.41   463.2   12.4      73.937
2013    6        1     6  29    8.42   463.9   12.4      74.157
2013    6        1     6  35    8.42   464.7   12.4      74.376
2013    6        1     6  41    8.43   465.5   12.4      74.599
2013    6        1     6  48    8.43   466.3   12.4      74.823
2013    6        1     6  54    8.43   467.0   12.3      75.047
2013    6        1     7   1    8.44   467.7   12.3      75.266
2013    6        1     7   7    8.44   468.5   12.3      75.490
2013    6        1     7  14    8.45   469.3   12.3      75.719
2013    6        1     7  20    8.45   470.1   12.3      75.953
2013    6        1     7  26    8.46   470.9   12.3      76.190
2013    6        1     7  33    8.47   471.7   12.3      76.432
2013    6        1     7  39    8.47   472.6   12.3      76.680
2013    6        1     7  46    8.48   473.5   12.2      76.929
2013    6        1     7  52    8.48   474.4   12.2      77.173
2013    6        1     7  59    8.49   475.3   12.2      77.414
2013    6        1     8   5    8.49   476.2   12.2      77.654
2013    6        1     8  11    8.50   477.1   12.1      77.895
2013    6        1     8  18    8.50   478.0   12.1      78.136
2013    6        1     8  24    8.51   479.0   12.1      78.380
2013    6        1     8  31    8.51   479.9   12.1      78.624
2013    6        1     8  37    8.51   480.9   12.0      78.871
2013    6        1     8  44    8.51   481.9   12.0      79.119
2013    6        1     8  50    8.52   482.9   12.0      79.370
2013    6        1     8  56    8.52   483.9   11.9      79.624
2013    6        1     9   3    8.52   484.8   11.9      79.882
2013    6        1     9   9    8.52   485.8   11.8      80.144
2013    6        1     9  16    8.52   486.8   11.8      80.410
2013    6        1     9  22    8.52   487.8   11.8      80.681
2013    6        1     9  29    8.52   488.8   11.7      80.959
2013    6        1     9  35    8.52   489.9   11.7      81.242
2013    6        1     9  41    8.53   490.9   11.6      81.532
2013    6        1     9  48    8.53   491.9   11.6      81.828
2013    6        1     9  54    8.53   493.0   11.6      82.132
2013    6        1    10   1    8.52   494.0   11.5      82.443
2013    6        1    10   7    8.52   495.1   11.5      82.762
2013    6        1    10  14    8.52   496.1   11.4      83.087
2013    6        1    10  20    8.52   497.2   11.4      83.420
2013    6        1    10  27    8.52   498.3   11.3      83.758
2013    6        1    10  33    8.51   499.4   11.3      84.102
2013    6        1    10  39    8.51   500.5   11.2      84.445
2013    6        1    10  46    8.51   501.6   11.2      84.789
2013    6        1    10  52    8.50   502.7   11.1      85.128
2013    6        1    10  59    8.49   503.9   11.1      85.458
2013    6        1    11   5    8.48   505.0   11.0      85.773
2013    6        1    11  12    8.47   506.1   10.9      86.071
2013    6        1    11  18    8.46   507.1   10.9      86.351
2013    6        1    11  25    8.45   508.2   10.8      86.612
2013    6        1    11  31    8.44   509.3   10.7      86.860
2013    6        1    11  37    8.42   510.4   10.7      87.088
2013    6        1    11  44    8.41   511.5   10.6      87.288
2013    6        1    11  50    8.39   512.5   10.5      87.466
2013    6        1    11  57    8.38   513.6   10.4      87.625
2013    6        1    12   3    8.36   514.6   10.4      87.765
2013    6        1    12  10    8.34   515.6   10.3      87.886
2013    6        1    12  16    8.32   516.6   10.2      88.008
2013    6        1    12  22    8.31   517.6   10.1      88.132
2013    6        1    12  29    8.29   518.6   10.1      88.256
2013    6        1    12  35    8.27   519.7   10.0      88.377
2013    6        1    12  42    8.25   520.8    9.9      88.493
2013    6        1    12  48    8.23   521.9    9.9      88.604
2013    6        1    12  55    8.21   523.0    9.8      88.713
2013    6        1    13   1    8.19   524.1    9.7      88.819
2013    6        1    13   7    8.17   525.2    9.7      88.921
2013    6        1    13  14    8.15   526.3    9.6      89.018
2013    6        1    13  20    8.13   527.5    9.5      89.111
2013    6        1    13  27    8.11   528.6    9.5      89.202
2013    6        1    13  33    8.09   529.8    9.4      89.292
2013    6        1    13  40    8.07   530.9    9.3      89.380
2013    6        1    13  46    8.04   532.1    9.3      89.472
2013    6        1    13  52    8.02   533.2    9.2      89.565
2013    6        1    13  59    8.00   534.4    9.2      89.660
2013    6        1    14   5    7.97   535.5    9.1      89.755
2013    6        1    14  12    7.95   536.7    9.0      89.851
2013    6        1    14  18    7.93   537.8    9.0      89.946
2013    6        1    14  25    7.90   538.9    8.9      90.040
2013    6        1    14  31    7.88   540.1    8.8      90.134
2013    6        1    14  37    7.86   541.2    8.8      90.225
2013    6        1    14  44    7.83   542.3    8.7      90.314
2013    6        1    14  50    7.81   543.4    8.7      90.399
2013    6        1    14  57    7.79   544.4    8.6      90.479
2013    6        1    15   3    7.77   545.5    8.5      90.553
2013    6        1    15  10    7.74   546.5    8.5      90.623
2013    6        1    15  16    7.72   547.6    8.4      90.694
2013    6        1    15  22    7.70   548.6    8.4      90.766
2013    6        1    15  29    7.68   549.6    8.3      90.842
2013    6        1    15  35    7.66   550.7    8.3      90.919
2013    6        1    15  42    7.64   551.7    8.2      91.001
2013    6        1    15  48    7.62   552.8    8.1      91.086
2013    6        1    15  55    7.60   553.8    8.1      91.176
2013    6        1    16   1    7.58   554.9    8.0      91.270
2013    6        1    16   8    7.56   555.9    8.0      91.367
2013    6        1    16  14    7.54   557.0    7.9      91.468
2013    6        1    16  20    7.51   558.1    7.9      91.572
2013    6        1    16  27    7.49   559.2    7.9      91.678
2013    6        1    16  33    7.47   560.2    7.8      91.786
2013    6        1    16  40    7.45   561.3    7.8      91.896
2013    6        1    16  46    7.43   562.4    7.7      92.008
2013    6        1    16  53    7.41   563.5    7.7      92.120
2013    6        1    16  59    7.39   564.7    7.6      92.234
2013    6        1    17   5    7.37   565.8    7.6      92.347
2013    6        1    17  12    7.35   566.9    7.5      92.460
2013    6        1    17  18    7.32   568.1    7.5      92.570
2013    6        1    17  25    7.30   569.2    7.4      92.677
2013    6        1    17  31    7.28   570.4    7.4      92.781
2013    6        1    17  38    7.26   571.5    7.3      92.877
2013    6        1    17  44    7.23   572.7    7.3      92.964
2013    6        1    17  50    7.21   573.9    7.2      93.037
2013    6        1    17  57    7.18   575.1    7.2      93.101
2013    6        1    18   3    7.16   576.4    7.1      93.151
2013    6        1    18  10    7.13   577.6    7.1      93.171
2013    6        1    18  16    7.10   578.8    7.0      93.165
2013    6        1    18  23    7.08   580.1    7.0      93.136
2013    6        1    18  29    7.05   581.3    6.9      93.079
2013    6        1    18  36    7.02   582.5    6.8      92.989
2013    6        1    18  42    6.99   583.7    6.8      92.876
2013    6        1    18  48    6.96   585.0    6.7      92.755
2013    6        1    18  55    6.92   586.3    6.6      92.597
2013    6        1    19   1    6.89   587.5    6.6      92.397
2013    6        1    19   8    6.86   588.7    6.5      92.168
2013    6        1    19  14    6.83   589.9    6.4      91.917
2013    6        1    19  21    6.79   591.0    6.4      91.641
2013    6        1    19  27    6.76   592.1    6.3      91.349
2013    6        1    19  34    6.73   593.2    6.2      91.072
2013    6        1    19  40    6.70   594.3    6.2      90.808
2013    6        1    19  46    6.66   595.4    6.1      90.555
2013    6        1    19  53    6.63   596.5    6.1      90.310
2013    6        1    19  59    6.60   597.6    6.0      90.071
2013    6        1    20   6    6.57   598.7    6.0      89.840
2013    6        1    20  12    6.53   599.8    5.9      89.617
2013    6        1    20  19    6.50   600.9    5.8      89.403
2013    6        1    20  25    6.47   602.0    5.8      89.193
2013    6        1    20  31    6.44   603.0    5.7      88.989
2013    6        1    20  38    6.41   604.1    5.7      88.787
2013    6        1    20  44    6.38   605.2    5.6      88.590
2013    6        1    20  51    6.34   606.3    5.6      88.393
2013    6        1    20  57    6.31   607.3    5.5      88.199
2013    6        1    21   4    6.28   608.4    5.5      88.004
2013    6        1    21  10    6.25   609.4    5.4      87.810
2013    6        1    21  16    6.22   610.4    5.4      87.615
2013    6        1    21  23    6.19   611.4    5.4      87.421
2013    6        1    21  29    6.16   612.3    5.3      87.226
2013    6        1    21  36    6.13   613.2    5.3      87.034
2013    6        1    21  42    6.10   614.1    5.2      86.841
2013    6        1    21  49    6.07   615.0    5.2      86.651
2013    6        1    21  55    6.04   615.9    5.1      86.463
2013    6        1    22   1    6.01   616.7    5.1      86.278
2013    6        1    22   8    5.98   617.5    5.1      86.096
2013    6        1    22  14    5.96   618.3    5.0      85.918
2013    6        1    22  21    5.93   619.1    5.0      85.742
2013    6        1    22  27    5.90   619.9    5.0      85.571
2013    6        1    22  34    5.88   620.6    4.9      85.403
2013    6        1    22  40    5.85   621.3    4.9      85.239
2013    6        1    22  46    5.82   622.1    4.9      85.077
2013    6        1    22  53    5.80   622.8    4.8      84.918
2013    6        1    22  59    5.77   623.4    4.8      84.760
2013    6        1    23   6    5.75   624.1    4.8      84.605
2013    6        1    23  12    5.72   624.8    4.7      84.449
2013    6        1    23  19    5.70   625.4    4.7      84.294
2013    6        1    23  25    5.68   626.0    4.7      84.138
2013    6        1    23  31    5.65   626.7    4.7      83.982
2013    6        1    23  38    5.63   627.3    4.6      83.824
2013    6        1    23  44    5.60   627.8    4.6      83.666
2013    6        1    23  51    5.58   628.4    4.6      83.505
2013    6        1    23  57    5.56   629.0    4.6      83.342
2013    6        2     0   4    5.53   629.5    4.5      83.176
2013    6        2     0  10    5.51   630.1    4.5      83.007
2013    6        2     0  16    5.49   630.6    4.5      82.835
2013    6        2     0  23    5.46   631.1    4.5      82.661
2013    6        2     0  29    5.44   631.5    4.4      82.485
2013    6        2     0  36    5.42   632.0    4.4      82.309
2013    6        2     0  42    5.40   632.4    4.4      82.129
2013    6        2     0  49    5.37   632.9    4.4      81.950
2013    6        2     0  55    5.35   633.3    4.4      81.767
2013    6        2     1   2    5.33   633.7    4.3      81.582
2013    6        2     1   8    5.31   634.1    4.3      81.393
2013    6        2     1  14    5.28   634.5    4.3      81.200
2013    6        2     1  21    5.26   634.9    4.3      81.002
2013    6        2     1  27    5.24   635.3    4.3      80.798
2013    6        2     1  34    5.22   635.6    4.2      80.587
2013    6        2     1  40    5.20   636.0    4.2      80.373
2013    6        2     1  47    5.18   636.3    4.2      80.154
2013    6        2     1  53    5.16   636.6    4.2      79.934
2013    6        2     1  59    5.14   636.9    4.2      79.713
2013    6        2     2   6    5.12   637.2    4.1      79.492
2013    6        2     2  12    5.10   637.6    4.1      79.276
2013    6        2     2  19    5.08   637.8    4.1      79.062
2013    6        2     2  25    5.06   638.1    4.1      78.856
2013    6        2     2  32    5.04   638.4    4.1      78.656
2013    6        2     2  38    5.02   638.7    4.1      78.467
2013    6        2     2  45    5.00   639.0    4.0      78.285
2013    6        2     2  51    4.98   639.2    4.0      78.113
2013    6        2     2  57    4.96   639.5    4.0      77.947
2013    6        2     3   4    4.95   639.8    4.0      77.790
2013    6        2     3  10    4.93   640.1    4.0      77.640
2013    6        2     3  17    4.91   640.5    4.0      77.497
2013    6        2     3  23    4.89   640.8    3.9      77.357
2013    6        2     3  30    4.88   641.2    3.9      77.219
2013    6        2     3  36    4.86   641.5    3.9      77.083
2013    6        2     3  42    4.85   641.9    3.9      76.947
2013    6        2     3  49    4.83   642.3    3.9      76.814
2013    6        2     3  55    4.81   642.7    3.9      76.682
2013    6        2     4   2    4.80   643.1    3.9      76.552
2013    6        2     4   8    4.78   643.5    3.8      76.419
2013    6        2     4  15    4.77   644.0    3.8      76.286
2013    6        2     4  21    4.75   644.4    3.8      76.149
2013    6        2     4  27    4.74   644.8    3.8      76.009
2013    6        2     4  34    4.72   645.2    3.8      75.867
2013    6        2     4  40    4.71   645.5    3.8      75.725
2013    6        2     4  47    4.69   645.9    3.8      75.580
2013    6        2     4  53    4.68   646.2    3.7      75.437
2013    6        2     5   0    4.66   646.6    3.7      75.295
2013    6        2     5   6    4.65   646.9    3.7      75.156
2013    6        2     5  12    4.63   647.2    3.7      75.019
2013    6        2     5  19    4.62   647.5    3.7      74.887
2013    6        2     5  25    4.61   647.8    3.7      74.759
2013    6        2     5  32    4.59   648.1    3.7      74.635
2013    6        2     5  38    4.58   648.3    3.6      74.515
2013    6        2     5  45    4.57   648.6    3.6      74.399
2013    6        2     5  51    4.56   648.9    3.6      74.286
2013    6        2     5  57    4.54   649.2    3.6      74.177
2013    6        2     6   4    4.53   649.5    3.6      74.071
2013    6        2     6  10    4.52   649.7    3.6      73.967
2013    6        2     6  17    4.51   650.0    3.6      73.865
2013    6        2     6  23    4.50   650.3    3.6      73.765
2013    6        2     6  30    4.49   650.5    3.6      73.665
2013    6        2     6  36    4.47   650.8    3.5      73.564
2013    6        2     6  42    4.46   651.1    3.5      73.463
2013    6        2     6  49    4.45   651.3    3.5      73.361
2013    6        2     6  55    4.44   651.6    3.5      73.260
2013    6        2     7   2    4.43   651.8    3.5      73.159
2013    6        2     7   8    4.42   652.1    3.5      73.057
2013    6        2     7  15    4.41   652.3    3.5      72.954
2013    6        2     7  21    4.40   652.5    3.5      72.849
2013    6        2     7  27    4.39   652.7    3.5      72.743
2013    6        2     7  34    4.37   652.9    3.5      72.638
2013    6        2     7  40    4.36   653.1    3.4      72.535
2013    6        2     7  47    4.35   653.3    3.4      72.432
2013    6        2     7  53    4.34   653.5    3.4      72.330
2013    6        2     8   0    4.33   653.7    3.4      72.230
2013    6        2     8   6    4.32   653.9    3.4      72.132
2013    6        2     8  13    4.31   654.0    3.4      72.033
2013    6        2     8  19    4.30   654.2    3.4      71.937
2013    6        2     8  25    4.29   654.4    3.4      71.840
2013    6        2     8  32    4.28   654.6    3.4      71.743
2013    6        2     8  38    4.27   654.8    3.4      71.646
2013    6        2     8  45    4.27   655.0    3.4      71.547
2013    6        2     8  51    4.26   655.2    3.3      71.445
2013    6        2     8  58    4.25   655.4    3.3      71.343
2013    6        2     9   4    4.24   655.6    3.3      71.238
2013    6        2     9  10    4.23   655.8    3.3      71.132
2013    6        2     9  17    4.22   656.0    3.3      71.024
2013    6        2     9  23    4.21   656.2    3.3      70.914
2013    6        2     9  30    4.20   656.3    3.3      70.803
2013    6        2     9  36    4.19   656.5    3.3      70.690
2013    6        2     9  43    4.18   656.6    3.3      70.578
2013    6        2     9  49    4.17   656.8    3.3      70.468
2013    6        2     9  56    4.17   656.9    3.3      70.360
2013    6        2    10   2    4.16   657.0    3.2      70.254
2013    6        2    10   8    4.15   657.1    3.2      70.151
2013    6        2    10  15    4.14   657.2    3.2      70.051
2013    6        2    10  21    4.13   657.3    3.2      69.955
2013    6        2    10  28    4.12   657.4    3.2      69.863
2013    6        2    10  34    4.12   657.5    3.2      69.774
2013    6        2    10  41    4.11   657.6    3.2      69.689
2013    6        2    10  47    4.10   657.7    3.2      69.606
2013    6        2    10  53    4.09   657.8    3.2      69.524
2013    6        2    11   0    4.08   657.9    3.2      69.443
2013    6        2    11   6    4.08   658.0    3.2      69.363
2013    6        2    11  13    4.07   658.1    3.2      69.285
2013    6        2    11  19    4.06   658.3    3.2      69.208
2013    6        2    11  26    4.05   658.4    3.2      69.131
2013    6        2    11  32    4.05   658.6    3.2      69.052
2013    6        2    11  38    4.04   658.8    3.1      68.972
2013    6        2    11  45    4.03   658.9    3.1      68.890
2013    6        2    11  51    4.02   659.0    3.1      68.808
2013    6        2    11  58    4.02   659.1    3.1      68.725
2013    6        2    12   4    4.01   659.2    3.1      68.641
2013    6        2    12  11    4.00   659.4    3.1      68.556
2013    6        2    12  17    4.00   659.5    3.1      68.472
2013    6        2    12  23    3.99   659.6    3.1      68.388
2013    6        2    12  30    3.98   659.7    3.1      68.306
2013    6        2    12  36    3.97   659.8    3.1      68.225
2013    6        2    12  43    3.97   659.9    3.1      68.145
2013    6        2    12  49    3.96   660.0    3.1      68.066
2013    6        2    12  56    3.95   660.1    3.1      67.988
2013    6        2    13   2    3.95   660.2    3.1      67.911
2013    6        2    13   8    3.94   660.3    3.1      67.836
2013    6        2    13  15    3.94   660.3    3.1      67.761
2013    6        2    13  21    3.93   660.4    3.0      67.688
2013    6        2    13  28    3.92   660.5    3.0      67.616
2013    6        2    13  34    3.92   660.6    3.0      67.544
2013    6        2    13  41    3.91   660.7    3.0      67.475
2013    6        2    13  47    3.90   660.8    3.0      67.405
2013    6        2    13  53    3.90   660.9    3.0      67.338
2013    6        2    14   0    3.89   660.9    3.0      67.271
2013    6        2    14   6    3.89   661.0    3.0      67.206
2013    6        2    14  13    3.88   661.0    3.0      67.142
2013    6        2    14  19    3.87   661.1    3.0      67.080
2013    6        2    14  26    3.87   661.1    3.0      67.019
2013    6        2    14  32    3.86   661.2    3.0      66.960
2013    6        2    14  38    3.86   661.2    3.0      66.901
2013    6        2    14  45    3.85   661.2    3.0      66.843
2013    6        2    14  51    3.85   661.3    3.0      66.785
2013    6        2    14  58    3.84   661.3    3.0      66.728
2013    6        2    15   4    3.83   661.3    3.0      66.670
2013    6        2    15  11    3.83   661.4    3.0      66.612
2013    6        2    15  17    3.82   661.4    3.0      66.552
2013    6        2    15  23    3.82   661.4    3.0      66.493
2013    6        2    15  30    3.81   661.4    3.0      66.433
2013    6        2    15  36    3.81   661.5    3.0      66.372
2013    6        2    15  43    3.80   661.5    3.0      66.311
2013    6        2    15  49    3.80   661.5    3.0      66.249
2013    6        2    15  56    3.79   661.6    3.0      66.187
2013    6        2    16   2    3.79   661.6    2.9      66.124
2013    6        2    16   9    3.78   661.6    2.9      66.061
2013    6        2    16  15    3.78   661.6    2.9      65.998
2013    6        2    16  21    3.77   661.7    2.9      65.934
2013    6        2    16  28    3.77   661.7    2.9      65.870
2013    6        2    16  34    3.76   661.7    2.9      65.806
2013    6        2    16  41    3.75   661.7    2.9      65.742
2013    6        2    16  47    3.75   661.7    2.9      65.678
2013    6        2    16  54    3.74   661.8    2.9      65.614
2013    6        2    17   0    3.74   661.8    2.9      65.549
2013    6        2    17   7    3.74   661.8    2.9      65.485
2013    6        2    17  13    3.73   661.8    2.9      65.421
2013    6        2    17  19    3.73   661.8    2.9      65.358
2013    6        2    17  26    3.72   661.8    2.9      65.295
2013    6        2    17  32    3.72   661.8    2.9      65.232
2013    6        2    17  39    3.71   661.8    2.9      65.169
2013    6        2    17  45    3.71   661.8    2.9      65.107
2013    6        2    17  52    3.70   661.8    2.9      65.046
2013    6        2    17  58    3.70   661.8    2.9      64.985
2013    6        2    18   4    3.69   661.8    2.9      64.925
2013    6        2    18  11    3.69   661.8    2.9      64.865
2013    6        2    18  17    3.68   661.8    2.9      64.806
2013    6        2    18  24    3.68   661.8    2.9      64.747
2013    6        2    18  30    3.67   661.8    2.9      64.689
2013    6        2    18  37    3.67   661.7    2.9      64.632
2013    6        2    18  43    3.67   661.7    2.9      64.575
2013    6        2    18  49    3.66   661.7    2.9      64.518
2013    6        2    18  56    3.66   661.7    2.9      64.462
2013    6        2    19   2    3.65   661.7    2.9      64.406
2013    6        2    19   9    3.65   661.7    2.9      64.350
2013    6        2    19  15    3.64   661.6    2.8      64.295
2013    6        2    19  22    3.64   661.6    2.8      64.239
2013    6        2    19  28    3.64   661.6    2.8      64.185
2013    6        2    19  34    3.63   661.6    2.8      64.130
2013    6        2    19  41    3.63   661.6    2.8      64.075
2013    6        2    19  47    3.62   661.5    2.8      64.021
2013    6        2    19  54    3.62   661.5    2.8      63.966
2013    6        2    20   0    3.62   661.5    2.8      63.912
2013    6        2    20   7    3.61   661.4    2.8      63.858
2013    6        2    20  13    3.61   661.4    2.8      63.804
2013    6        2    20  19    3.60   661.4    2.8      63.750
2013    6        2    20  26    3.60   661.4    2.8      63.697
2013    6        2    20  32    3.60   661.3    2.8      63.643
2013    6        2    20  39    3.59   661.3    2.8      63.590
2013    6        2    20  45    3.59   661.3    2.8      63.537
2013    6        2    20  52    3.58   661.2    2.8      63.484
2013    6        2    20  58    3.58   661.2    2.8      63.431
2013    6        2    21   4    3.58   661.1    2.8      63.378
2013    6        2    21  11    3.57   661.1    2.8      63.326
2013    6        2    21  17    3.57   661.1    2.8      63.273
2013    6        2    21  24    3.57   661.0    2.8      63.221
2013    6        2    21  30    3.56   661.0    2.8      63.169
2013    6        2    21  37    3.56   660.9    2.8      63.116
2013    6        2    21  43    3.56   660.9    2.8      63.064
2013    6        2    21  49    3.55   660.8    2.8      63.012
2013    6        2    21  56    3.55   660.8    2.8      62.959
2013    6        2    22   2    3.54   660.7    2.8      62.907
2013    6        2    22   9    3.54   660.7    2.8      62.855
2013    6        2    22  15    3.54   660.6    2.8      62.803
2013    6        2    22  22    3.53   660.6    2.8      62.750
2013    6        2    22  28    3.53   660.5    2.8      62.698
2013    6        2    22  34    3.53   660.4    2.8      62.646
2013    6        2    22  41    3.52   660.4    2.8      62.593
2013    6        2    22  47    3.52   660.3    2.8      62.541
2013    6        2    22  54    3.52   660.3    2.8      62.489
2013    6        2    23   0    3.51   660.2    2.8      62.438
2013    6        2    23   7    3.51   660.1    2.8      62.386
2013    6        2    23  13    3.51   660.1    2.8      62.335
2013    6        2    23  19    3.50   660.0    2.8      62.283
2013    6        2    23  26    3.50   659.9    2.8      62.232
2013    6        2    23  32    3.50   659.9    2.8      62.182
2013    6        2    23  39    3.49   659.8    2.8      62.132
2013    6        2    23  45    3.49   659.7    2.7      62.082
2013    6        2    23  52    3.49   659.7    2.7      62.032
2013    6        2    23  58    3.48   659.6    2.7      61.983
2013    6        3     0   5    3.48   659.5    2.7      61.933
2013    6        3     0  11    3.48   659.4    2.7      61.885
2013    6        3     0  17    3.48   659.4    2.7      61.836
2013    6        3     0  24    3.47   659.3    2.7      61.788
2013    6        3     0  30    3.47   659.2    2.7      61.740
2013    6        3     0  37    3.47   659.2    2.7      61.693
2013    6        3     0  43    3.46   659.1    2.7      61.645
2013    6        3     0  50    3.46   659.0    2.7      61.598
2013    6        3     0  56    3.46   658.9    2.7      61.551
2013    6        3     1   3    3.45   658.9    2.7      61.505
2013    6        3     1   9    3.45   658.8    2.7      61.458
2013    6        3     1  15    3.45   658.7    2.7      61.412
2013    6        3     1  22    3.45   658.6    2.7      61.366
2013    6        3     1  28    3.44   658.5    2.7      61.320
2013    6        3     1  35    3.44   658.5    2.7      61.274
2013    6        3     1  41    3.44   658.4    2.7      61.228
2013    6        3     1  48    3.43   658.3    2.7      61.183
2013    6        3     1  54    3.43   658.2    2.7      61.137
2013    6        3     2   0    3.43   658.1    2.7      61.092
2013    6        3     2   7    3.43   658.1    2.7      61.047
2013    6        3     2  13    3.42   658.0    2.7      61.002
2013    6        3     2  20    3.42   657.9    2.7      60.957
2013    6        3     2  26    3.42   657.8    2.7      60.912
2013    6        3     2  33    3.41   657.7    2.7      60.867
2013    6        3     2  39    3.41   657.6    2.7      60.822
2013    6        3     2  45    3.41   657.5    2.7      60.778
2013    6        3     2  52    3.41   657.5    2.7      60.734
2013    6        3     2  58    3.40   657.4    2.7      60.690
2013    6        3     3   5    3.40   657.3    2.7      60.645
2013    6        3     3  11    3.40   657.2    2.7      60.602
2013    6        3     3  18    3.39   657.1    2.7      60.558
2013    6        3     3  24    3.39   657.0    2.7      60.514
2013    6        3     3  30    3.39   656.9    2.7      60.471
2013    6        3     3  37    3.39   656.8    2.7      60.427
2013    6        3     3  43    3.38   656.7    2.7      60.384
2013    6        3     3  50    3.38   656.6    2.7      60.341
2013    6        3     3  56    3.38   656.5    2.7      60.298
2013    6        3     4   2    3.38   656.4    2.7      60.255
2013    6        3     4   9    3.37   656.3    2.7      60.212
2013    6        3     4  15    3.37   656.2    2.7      60.169
2013    6        3     4  22    3.37   656.1    2.7      60.126
2013    6        3     4  28    3.36   656.0    2.7      60.083
2013    6        3     4  35    3.36   655.9    2.7      60.040
2013    6        3     4  41    3.36   655.8    2.7      59.997
2013    6        3     4  47    3.36   655.7    2.7      59.954
2013    6        3     4  54    3.35   655.6    2.7      59.911
2013    6        3     5   0    3.35   655.5    2.7      59.868
2013    6        3     5   7    3.35   655.3    2.7      59.825
2013    6        3     5  13    3.35   655.2    2.7      59.781
2013    6        3     5  20    3.34   655.1    2.7      59.737
2013    6        3     5  26    3.34   655.0    2.7      59.694
2013    6        3     5  32    3.34   654.9    2.7      59.650
2013    6        3     5  39    3.34   654.8    2.7      59.606
2013    6        3     5  45    3.33   654.7    2.7      59.561
2013    6        3     5  52    3.33   654.6    2.7      59.517
2013    6        3     5  58    3.33   654.4    2.7      59.473
2013    6        3     6   5    3.33   654.3    2.7      59.428
2013    6        3     6  11    3.32   654.2    2.7      59.384
2013    6        3     6  18    3.32   654.1    2.7      59.339
2013    6        3     6  24    3.32   654.0    2.7      59.295
2013    6        3     6  30    3.32   653.8    2.7      59.250
2013    6        3     6  37    3.31   653.7    2.7      59.206
2013    6        3     6  43    3.31   653.6    2.7      59.161
2013    6        3     6  50    3.31   653.5    2.7      59.116
2013    6        3     6  56    3.31   653.4    2.7      59.072
2013    6        3     7   3    3.30   653.2    2.7      59.027
2013    6        3     7   9    3.30   653.1    2.7      58.982
2013    6        3     7  15    3.30   653.0    2.7      58.938
2013    6        3     7  22    3.30   652.9    2.7      58.893
2013    6        3     7  28    3.29   652.7    2.7      58.848
2013    6        3     7  35    3.29   652.6    2.7      58.803
2013    6        3     7  41    3.29   652.5    2.7      58.758
2013    6        3     7  48    3.29   652.4    2.7      58.713
2013    6        3     7  54    3.29   652.2    2.7      58.668
2013    6        3     8   1    3.28   652.1    2.7      58.623
2013    6        3     8   7    3.28   652.0    2.7      58.578
2013    6        3     8  13    3.28   651.8    2.7      58.532
2013    6        3     8  20    3.28   651.7    2.7      58.487
2013    6        3     8  26    3.27   651.6    2.7      58.441
2013    6        3     8  33    3.27   651.5    2.7      58.396
2013    6        3     8  39    3.27   651.3    2.7      58.350
2013    6        3     8  46    3.27   651.2    2.7      58.304
2013    6        3     8  52    3.26   651.1    2.7      58.259
2013    6        3     8  58    3.26   650.9    2.7      58.213
2013    6        3     9   5    3.26   650.8    2.7      58.167
2013    6        3     9  11    3.26   650.6    2.7      58.122
2013    6        3     9  18    3.26   650.5    2.7      58.076
2013    6        3     9  24    3.25   650.4    2.7      58.031
2013    6        3     9  31    3.25   650.2    2.7      57.986
2013    6        3     9  37    3.25   650.1    2.7      57.941
2013    6        3     9  43    3.25   650.0    2.7      57.896
2013    6        3     9  50    3.25   649.8    2.7      57.851
2013    6        3     9  56    3.24   649.7    2.7      57.806
2013    6        3    10   3    3.24   649.5    2.7      57.762
2013    6        3    10   9    3.24   649.4    2.7      57.718
2013    6        3    10  16    3.24   649.3    2.7      57.674
2013    6        3    10  22    3.23   649.1    2.7      57.631
2013    6        3    10  28    3.23   649.0    2.7      57.587
2013    6        3    10  35    3.23   648.8    2.7      57.544
2013    6        3    10  41    3.23   648.7    2.7      57.502
2013    6        3    10  48    3.23   648.6    2.7      57.459
2013    6        3    10  54    3.22   648.4    2.7      57.417
2013    6        3    11   1    3.22   648.3    2.7      57.374
2013    6        3    11   7    3.22   648.1    2.7      57.332
2013    6        3    11  13    3.22   648.0    2.7      57.291
2013    6        3    11  20    3.22   647.8    2.7      57.249
2013    6        3    11  26    3.21   647.7    2.7      57.207
2013    6        3    11  33    3.21   647.6    2.7      57.166
2013    6        3    11  39    3.21   647.4    2.7      57.124
2013    6        3    11  46    3.21   647.3    2.7      57.082
2013    6        3    11  52    3.21   647.1    2.7      57.041
2013    6        3    11  58    3.20   647.0    2.7      56.999
2013    6        3    12   5    3.20   646.8    2.7      56.957
2013    6        3    12  11    3.20   646.7    2.7      56.916
2013    6        3    12  18    3.20   646.5    2.7      56.874
2013    6        3    12  24    3.20   646.4    2.7      56.832
2013    6        3    12  31    3.20   646.2    2.7      56.791
2013    6        3    12  37    3.19   646.1    2.7      56.749
2013    6        3    12  43    3.19   645.9    2.7      56.707
2013    6        3    12  50    3.19   645.8    2.7      56.665
2013    6        3    12  56    3.19   645.6    2.7      56.624
2013    6        3    13   3    3.19   645.5    2.7      56.582
2013    6        3    13   9    3.18   645.3    2.7      56.540
2013    6        3    13  16    3.18   645.2    2.7      56.499
2013    6        3    13  22    3.18   645.0    2.7      56.457
2013    6        3    13  28    3.18   644.9    2.7      56.416
2013    6        3    13  35    3.18   644.7    2.7      56.375
2013    6        3    13  41    3.17   644.6    2.7      56.333
2013    6        3    13  48    3.17   644.4    2.7      56.292
2013    6        3    13  54    3.17   644.3    2.7      56.251
2013    6        3    14   1    3.17   644.1    2.7      56.210
2013    6        3    14   7    3.17   644.0    2.7      56.169
2013    6        3    14  13    3.16   643.8    2.7      56.128
2013    6        3    14  20    3.16   643.6    2.7      56.088
2013    6        3    14  26    3.16   643.5    2.7      56.047
2013    6        3    14  33    3.16   643.3    2.7      56.006
2013    6        3    14  39    3.16   643.2    2.7      55.966
2013    6        3    14  46    3.15   643.0    2.7      55.925
2013    6        3    14  52    3.15   642.8    2.7      55.884
2013    6        3    14  59    3.15   642.7    2.7      55.843
2013    6        3    15   5    3.15   642.5    2.7      55.802
2013    6        3    15  11    3.15   642.3    2.7      55.761
2013    6        3    15  18    3.15   642.2    2.7      55.720
2013    6        3    15  24    3.14   642.0    2.7      55.678
2013    6        3    15  31    3.14   641.9    2.7      55.637
2013    6        3    15  37    3.14   641.7    2.7      55.595
2013    6        3    15  44    3.14   641.5    2.7      55.553
2013    6        3    15  50    3.14   641.4    2.7      55.510
2013    6        3    15  56    3.14   641.2    2.7      55.468
2013    6        3    16   3    3.13   641.0    2.7      55.425
2013    6        3    16   9    3.13   640.8    2.7      55.381
2013    6        3    16  16    3.13   640.7    2.7      55.337
2013    6        3    16  22    3.13   640.5    2.7      55.293
2013    6        3    16  29    3.13   640.3    2.7      55.249
2013    6        3    16  35    3.13   640.2    2.7      55.204
2013    6        3    16  41    3.12   640.0    2.7      55.159
2013    6        3    16  48    3.12   639.8    2.7      55.113
2013    6        3    16  54    3.12   639.6    2.7      55.067
2013    6        3    17   1    3.12   639.5    2.7      55.021
2013    6        3    17   7    3.12   639.3    2.7      54.975
2013    6        3    17  14    3.12   639.1    2.7      54.929
2013    6        3    17  20    3.11   638.9    2.7      54.882
2013    6        3    17  26    3.11   638.8    2.7      54.836
2013    6        3    17  33    3.11   638.6    2.7      54.789
2013    6        3    17  39    3.11   638.4    2.7      54.742
2013    6        3    17  46    3.11   638.2    2.7      54.696
2013    6        3    17  52    3.11   638.1    2.7      54.649
2013    6        3    17  59    3.10   637.9    2.7      54.602
2013    6        3    18   5    3.10   637.7    2.7      54.555
2013    6        3    18  11    3.10   637.5    2.7      54.509
2013    6        3    18  18    3.10   637.4    2.7      54.462
2013    6        3    18  24    3.10   637.2    2.7      54.416
2013    6        3    18  31    3.10   637.0    2.7      54.369
2013    6        3    18  37    3.09   636.8    2.7      54.323
2013    6        3    18  44    3.09   636.6    2.7      54.277
2013    6        3    18  50    3.09   636.4    2.7      54.231
2013    6        3    18  56    3.09   636.3    2.7      54.186
2013    6        3    19   3    3.09   636.1    2.7      54.140
2013    6        3    19   9    3.09   635.9    2.7      54.095
2013    6        3    19  16    3.08   635.7    2.7      54.050
2013    6        3    19  22    3.08   635.5    2.7      54.005
2013    6        3    19  29    3.08   635.3    2.7      53.960
2013    6        3    19  35    3.08   635.1    2.7      53.916
2013    6        3    19  41    3.08   635.0    2.7      53.873
2013    6        3    19  48    3.08   634.8    2.7      53.829
2013    6        3    19  54    3.08   634.6    2.7      53.787
2013    6        3    20   1    3.07   634.4    2.7      53.744
2013    6        3    20   7    3.07   634.2    2.7      53.702
2013    6        3    20  14    3.07   634.0    2.7      53.660
2013    6        3    20  20    3.07   633.8    2.7      53.618
2013    6        3    20  26    3.07   633.6    2.7      53.577
2013    6        3    20  33    3.07   633.4    2.7      53.536
2013    6        3    20  39    3.07   633.2    2.7      53.495
2013    6        3    20  46    3.06   633.0    2.7      53.455
2013    6        3    20  52    3.06   632.8    2.7      53.414
2013    6        3    20  59    3.06   632.6    2.7      53.374
2013    6        3    21   5    3.06   632.4    2.7      53.333
2013    6        3    21  11    3.06   632.3    2.7      53.293
2013    6        3    21  18    3.06   632.1    2.7      53.253
2013    6        3    21  24    3.06   631.9    2.7      53.213
2013    6        3    21  31    3.05   631.7    2.7      53.172
2013    6        3    21  37    3.05   631.5    2.7      53.132
2013    6        3    21  44    3.05   631.3    2.7      53.091
2013    6        3    21  50    3.05   631.1    2.7      53.051
2013    6        3    21  57    3.05   630.9    2.7      53.010
2013    6        3    22   3    3.05   630.6    2.7      52.970
2013    6        3    22   9    3.05   630.4    2.7      52.930
2013    6        3    22  16    3.05   630.2    2.7      52.889
2013    6        3    22  22    3.04   630.0    2.7      52.849
2013    6        3    22  29    3.04   629.8    2.7      52.809
2013    6        3    22  35    3.04   629.6    2.7      52.769
2013    6        3    22  42    3.04   629.4    2.7      52.729
2013    6        3    22  48    3.04   629.2    2.7      52.689
2013    6        3    22  54    3.04   629.0    2.7      52.649
2013    6        3    23   1    3.04   628.8    2.7      52.609
2013    6        3    23   7    3.04   628.6    2.7      52.569
2013    6        3    23  14    3.04   628.4    2.7      52.530
2013    6        3    23  20    3.03   628.2    2.7      52.491
2013    6        3    23  27    3.03   628.0    2.7      52.451
2013    6        3    23  33    3.03   627.8    2.7      52.412
2013    6        3    23  39    3.03   627.5    2.7      52.373
2013    6        3    23  46    3.03   627.3    2.7      52.335
2013    6        3    23  52    3.03   627.1    2.7      52.297
2013    6        3    23  59    3.03   626.9    2.7      52.259
2013    6        4     0   5    3.03   626.7    2.7      52.221
2013    6        4     0  12    3.03   626.5    2.7      52.183
2013    6        4     0  18    3.03   626.3    2.7      52.146
2013    6        4     0  24    3.03   626.1    2.7      52.109
2013    6        4     0  31    3.02   625.8    2.7      52.073
2013    6        4     0  37    3.02   625.6    2.7      52.036
2013    6        4     0  44    3.02   625.4    2.7      52.000
2013    6        4     0  50    3.02   625.2    2.7      51.964
2013    6        4     0  57    3.02   625.0    2.7      51.929
2013    6        4     1   3    3.02   624.8    2.7      51.893
2013    6        4     1   9    3.02   624.5    2.7      51.858
2013    6        4     1  16    3.02   624.3    2.7      51.823
2013    6        4     1  22    3.02   624.1    2.7      51.788
2013    6        4     1  29    3.02   623.9    2.7      51.753
2013    6        4     1  35    3.02   623.7    2.7      51.718
2013    6        4     1  42    3.01   623.5    2.7      51.684
2013    6        4     1  48    3.01   623.2    2.7      51.649
2013    6        4     1  54    3.01   623.0    2.7      51.614
2013    6        4     2   1    3.01   622.8    2.7      51.579
2013    6        4     2   7    3.01   622.6    2.7      51.544
2013    6        4     2  14    3.01   622.4    2.7      51.509
2013    6        4     2  20    3.01   622.1    2.7      51.474
2013    6        4     2  27    3.01   621.9    2.7      51.438
2013    6        4     2  33    3.01   621.7    2.7      51.403
2013    6        4     2  39    3.01   621.5    2.7      51.367
2013    6        4     2  46    3.01   621.2    2.7      51.332
2013    6        4     2  52    3.01   621.0    2.7      51.297
2013    6        4     2  59    3.00   620.8    2.7      51.262
2013    6        4     3   5    3.00   620.5    2.7      51.227
2013    6        4     3  12    3.00   620.3    2.7      51.193
2013    6        4     3  18    3.00   620.1    2.7      51.158
2013    6        4     3  24    3.00   619.8    2.7      51.125
2013    6        4     3  31    3.00   619.6    2.7      51.092
2013    6        4     3  37    3.00   619.4    2.7      51.059
2013    6        4     3  44    3.00   619.1    2.7      51.027
2013    6        4     3  50    3.00   618.9    2.7      50.996
2013    6        4     3  57    3.00   618.7    2.7      50.965
2013    6        4     4   3    3.00   618.5    2.7      50.935
2013    6        4     4   9    3.00   618.2    2.7      50.905
2013    6        4     4  16    3.00   618.0    2.7      50.876
2013    6        4     4  22    3.00   617.8    2.7      50.847
2013    6        4     4  29    3.00   617.5    2.7      50.818
2013    6        4     4  35    3.00   617.3    2.7      50.789
2013    6        4     4  42    3.00   617.1    2.7      50.761
2013    6        4     4  48    3.00   616.9    2.7      50.732
2013    6        4     4  54    3.00   616.6    2.7      50.704
2013    6        4     5   1    3.00   616.4    2.7      50.676
2013    6        4     5   7    3.00   616.2    2.7      50.648
2013    6        4     5  14    3.00   616.0    2.7      50.619
2013    6        4     5  20    2.99   615.7    2.7      50.590
2013    6        4     5  27    2.99   615.5    2.7      50.561
2013    6        4     5  33    2.99   615.3    2.7      50.532
2013    6        4     5  40    2.99   615.1    2.7      50.502
2013    6        4     5  46    2.99   614.9    2.7      50.472
2013    6        4     5  52    2.99   614.6    2.7      50.441
2013    6        4     5  59    2.99   614.4    2.7      50.411
2013    6        4     6   5    2.99   614.2    2.7      50.381
2013    6        4     6  12    2.99   614.0    2.8      50.350
2013    6        4     6  18    2.99   613.8    2.8      50.320
2013    6        4     6  25    2.99   613.5    2.8      50.290
2013    6        4     6  31    2.99   613.3    2.8      50.260
2013    6        4     6  37    2.99   613.1    2.8      50.230
2013    6        4     6  44    2.99   612.9    2.8      50.200
2013    6        4     6  50    2.99   612.7    2.8      50.171
2013    6        4     6  57    2.99   612.5    2.8      50.142
2013    6        4     7   3    2.99   612.2    2.8      50.114
2013    6        4     7  10    2.99   612.0    2.8      50.086
2013    6        4     7  16    2.99   611.8    2.8      50.059
2013    6        4     7  22    2.99   611.6    2.8      50.032
2013    6        4     7  29    2.99   611.4    2.8      50.007
2013    6        4     7  35    3.00   611.1    2.8      49.982
2013    6        4     7  42    3.00   610.9    2.8      49.957
2013    6        4     7  48    3.00   610.7    2.8      49.934
2013    6        4     7  55    3.00   610.5    2.8      49.912
2013    6        4     8   1    3.00   610.3    2.8      49.890
2013    6        4     8   7    3.00   610.1    2.8      49.870
2013    6        4     8  14    3.00   609.8    2.8      49.850
2013    6        4     8  20    3.00   609.6    2.8      49.832
2013    6        4     8  27    3.00   609.4    2.8      49.814
2013    6        4     8  33    3.00   609.2    2.8      49.798
2013    6        4     8  40    3.00   609.0    2.8      49.782
2013    6        4     8  46    3.00   608.8    2.8      49.767
2013    6        4     8  52    3.00   608.6    2.8      49.753
2013    6        4     8  59    3.00   608.4    2.8      49.740
2013    6        4     9   5    3.00   608.2    2.8      49.727
2013    6        4     9  12    3.00   608.0    2.8      49.715
2013    6        4     9  18    3.00   607.7    2.8      49.703
2013    6        4     9  24    3.00   607.5    2.8      49.691
2013    6        4     9  31    3.00   607.3    2.8      49.680
2013    6        4     9  37    3.00   607.1    2.8      49.669
2013    6        4     9  44    3.00   606.9    2.8      49.658
2013    6        4     9  50    3.00   606.7    2.8      49.646
2013    6        4     9  57    3.00   606.5    2.8      49.635
2013    6        4    10   3    3.00   606.3    2.8      49.623
2013    6        4    10   9    3.00   606.1    2.8      49.611
2013    6        4    10  16    3.00   605.9    2.8      49.598
2013    6        4    10  22    3.00   605.7    2.8      49.584
2013    6        4    10  29    3.01   605.5    2.8      49.571
2013    6        4    10  35    3.01   605.4    2.8      49.556
2013    6        4    10  42    3.01   605.2    2.8      49.542
2013    6        4    10  48    3.01   605.0    2.8      49.527
2013    6        4    10  54    3.01   604.8    2.9      49.512
2013    6        4    11   1    3.01   604.6    2.9      49.497
2013    6        4    11   7    3.01   604.4    2.9      49.482
2013    6        4    11  14    3.01   604.2    2.9      49.467
2013    6        4    11  20    3.01   604.0    2.9      49.452
2013    6        4    11  27    3.01   603.8    2.9      49.438
2013    6        4    11  33    3.01   603.6    2.9      49.423
2013    6        4    11  40    3.01   603.4    2.9      49.409
2013    6        4    11  46    3.01   603.2    2.9      49.394
2013    6        4    11  52    3.01   603.0    2.9      49.380
2013    6        4    11  59    3.01   602.9    2.9      49.367
2013    6        4    12   5    3.01   602.7    2.9      49.354
2013    6        4    12  12    3.01   602.5    2.9      49.341
2013    6        4    12  18    3.01   602.3    2.9      49.328
2013    6        4    12  25    3.02   602.1    2.9      49.316
2013    6        4    12  31    3.02   601.9    2.9      49.305
2013    6        4    12  37    3.02   601.8    2.9      49.293
2013    6        4    12  44    3.02   601.6    2.9      49.281
2013    6        4    12  50    3.02   601.4    2.9      49.270
2013    6        4    12  57    3.02   601.2    2.9      49.259
2013    6        4    13   3    3.02   601.0    2.9      49.248
2013    6        4    13  10    3.02   600.9    2.9      49.237
2013    6        4    13  16    3.02   600.7    2.9      49.226
2013    6        4    13  23    3.02   600.5    2.9      49.216
2013    6        4    13  29    3.02   600.4    2.9      49.206
2013    6        4    13  35    3.02   600.2    2.9      49.196
2013    6        4    13  42    3.03   600.0    2.9      49.186
2013    6        4    13  48    3.03   599.9    2.9      49.176
2013    6        4    13  55    3.03   599.7    2.9      49.165
2013    6        4    14   1    3.03   599.5    2.9      49.155
2013    6        4    14   8    3.03   599.4    2.9      49.145
2013    6        4    14  14    3.03   599.2    2.9      49.135
2013    6        4    14  20    3.03   599.1    2.9      49.124
2013    6        4    14  27    3.03   598.9    2.9      49.114
2013    6        4    14  33    3.03   598.7    2.9      49.104
2013    6        4    14  40    3.03   598.6    2.9      49.095
2013    6        4    14  46    3.03   598.4    2.9      49.085
2013    6        4    14  53    3.03   598.3    2.9      49.075
2013    6        4    14  59    3.04   598.1    2.9      49.066
2013    6        4    15   5    3.04   598.0    2.9      49.057
2013    6        4    15  12    3.04   597.8    2.9      49.048
2013    6        4    15  18    3.04   597.7    2.9      49.040
2013    6        4    15  25    3.04   597.5    3.0      49.031
2013    6        4    15  31    3.04   597.4    3.0      49.023
2013    6        4    15  37    3.04   597.2    3.0      49.016
2013    6        4    15  44    3.04   597.1    3.0      49.009
2013    6        4    15  50    3.04   596.9    3.0      49.002
2013    6        4    15  57    3.04   596.8    3.0      48.995
2013    6        4    16   3    3.04   596.6    3.0      48.989
2013    6        4    16  10    3.04   596.5    3.0      48.983
2013    6        4    16  16    3.05   596.4    3.0      48.978
2013    6        4    16  22    3.05   596.2    3.0      48.973
2013    6        4    16  29    3.05   596.1    3.0      48.968
2013    6        4    16  35    3.05   595.9    3.0      48.964
2013    6        4    16  42    3.05   595.8    3.0      48.960
2013    6        4    16  48    3.05   595.7    3.0      48.956
2013    6        4    16  55    3.05   595.5    3.0      48.953
2013    6        4    17   1    3.05   595.4    3.0      48.950
2013    6        4    17   7    3.05   595.3    3.0      48.947
2013    6        4    17  14    3.05   595.1    3.0      48.944
2013    6        4    17  20    3.05   595.0    3.0      48.941
2013    6        4    17  27    3.05   594.9    3.0      48.937
2013    6        4    17  33    3.06   594.8    3.0      48.934
2013    6        4    17  40    3.06   594.7    3.0      48.930
2013    6        4    17  46    3.06   594.5    3.0      48.926
2013    6        4    17  52    3.06   594.4    3.0      48.921
2013    6        4    17  59    3.06   594.3    3.0      48.917
2013    6        4    18   5    3.06   594.2    3.0      48.912
2013    6        4    18  12    3.06   594.0    3.0      48.906
2013    6        4    18  18    3.06   593.9    3.0      48.900
2013    6        4    18  25    3.06   593.8    3.0      48.894
2013    6        4    18  31    3.06   593.7    3.0      48.888
2013    6        4    18  37    3.06   593.5    3.0      48.881
2013    6        4    18  44    3.06   593.4    3.0      48.874
2013    6        4    18  50    3.06   593.3    3.0      48.867
2013    6        4    18  57    3.06   593.2    3.0      48.860
2013    6        4    19   3    3.06   593.0    3.0      48.853
2013    6        4    19  10    3.06   592.9    3.0      48.845
2013    6        4    19  16    3.06   592.8    3.0      48.838
2013    6        4    19  22    3.07   592.6    3.0      48.831
2013    6        4    19  29    3.07   592.5    3.0      48.823
2013    6        4    19  35    3.07   592.4    3.0      48.816
2013    6        4    19  42    3.07   592.3    3.0      48.809
2013    6        4    19  48    3.07   592.1    3.0      48.802
2013    6        4    19  55    3.07   592.0    3.0      48.796
2013    6        4    20   1    3.07   591.9    3.0      48.789
2013    6        4    20   8    3.07   591.8    3.0      48.783
2013    6        4    20  14    3.07   591.6    3.0      48.777
2013    6        4    20  20    3.07   591.5    3.0      48.771
2013    6        4    20  27    3.07   591.4    3.0      48.766
2013    6        4    20  33    3.07   591.3    3.0      48.761
2013    6        4    20  40    3.07   591.1    3.0      48.756
2013    6        4    20  46    3.07   591.0    3.0      48.751
2013    6        4    20  53    3.07   590.9    3.1      48.746
2013    6        4    20  59    3.07   590.8    3.1      48.741
2013    6        4    21   5    3.07   590.6    3.1      48.735
2013    6        4    21  12    3.07   590.5    3.1      48.730
2013    6        4    21  18    3.07   590.4    3.1      48.724
2013    6        4    21  25    3.07   590.3    3.1      48.718
2013    6        4    21  31    3.08   590.1    3.1      48.711
2013    6        4    21  38    3.08   590.0    3.1      48.705
2013    6        4    21  44    3.08   589.9    3.1      48.699
2013    6        4    21  50    3.08   589.8    3.1      48.692
2013    6        4    21  57    3.08   589.7    3.1      48.686
2013    6        4    22   3    3.08   589.5    3.1      48.680
2013    6        4    22  10    3.08   589.4    3.1      48.674
2013    6        4    22  16    3.08   589.3    3.1      48.670
2013    6        4    22  23    3.08   589.2    3.1      48.665
2013    6        4    22  29    3.08   589.1    3.1      48.661
2013    6        4    22  35    3.08   589.0    3.1      48.657
2013    6        4    22  42    3.08   588.9    3.1      48.653
2013    6        4    22  48    3.08   588.8    3.1      48.648
2013    6        4    22  55    3.08   588.7    3.1      48.643
2013    6        4    23   1    3.08   588.5    3.1      48.638
2013    6        4    23   8    3.08   588.4    3.1      48.632
2013    6        4    23  14    3.08   588.3    3.1      48.627
2013    6        4    23  20    3.08   588.2    3.1      48.621
2013    6        4    23  27    3.08   588.1    3.1      48.615
2013    6        4    23  33    3.08   588.0    3.1      48.608
2013    6        4    23  40    3.08   587.9    3.1      48.602
2013    6        4    23  46    3.08   587.8    3.1      48.596
2013    6        4    23  52    3.08   587.7    3.1      48.589
2013    6        4    23  59    3.08   587.6    3.1      48.583
2013    6        5     0   5    3.08   587.5    3.1      48.576
2013    6        5     0  12    3.08   587.4    3.1      48.570
2013    6        5     0  18    3.08   587.3    3.1      48.563
2013    6        5     0  25    3.08   587.3    3.1      48.557
2013    6        5     0  31    3.08   587.2    3.1      48.551
2013    6        5     0  37    3.08   587.1    3.1      48.545
2013    6        5     0  44    3.08   587.0    3.1      48.538
2013    6        5     0  50    3.08   586.9    3.1      48.532
2013    6        5     0  57    3.08   586.8    3.1      48.526
2013    6        5     1   3    3.08   586.7    3.1      48.520
2013    6        5     1  10    3.08   586.6    3.1      48.514
2013    6        5     1  16    3.08   586.5    3.1      48.507
2013    6        5     1  22    3.08   586.4    3.1      48.501
2013    6        5     1  29    3.08   586.3    3.1      48.495
2013    6        5     1  35    3.08   586.2    3.1      48.488
2013    6        5     1  42    3.08   586.2    3.1      48.482
2013    6        5     1  48    3.08   586.1    3.1      48.476
2013    6        5     1  55    3.08   586.0    3.1      48.469
2013    6        5     2   1    3.08   585.9    3.1      48.462
2013    6        5     2   7    3.08   585.8    3.1      48.456
2013    6        5     2  14    3.08   585.7    3.1      48.449
2013    6        5     2  20    3.08   585.6    3.1      48.441
2013    6        5     2  27    3.08   585.5    3.1      48.434
2013    6        5     2  33    3.08   585.4    3.1      48.427
2013    6        5     2  40    3.08   585.3    3.1      48.419
2013    6        5     2  46    3.08   585.2    3.1      48.411
2013    6        5     2  53    3.08   585.1    3.1      48.403
2013    6        5     2  59    3.08   585.0    3.1      48.394
2013    6        5     3   5    3.08   584.9    3.1      48.386
2013    6        5     3  12    3.08   584.8    3.1      48.377
2013    6        5     3  18    3.08   584.7    3.1      48.368
2013    6        5     3  25    3.08   584.6    3.1      48.359
2013    6        5     3  31    3.08   584.5    3.1      48.350
2013    6        5     3  38    3.08   584.4    3.1      48.341
2013    6        5     3  44    3.08   584.3    3.1      48.332
2013    6        5     3  50    3.08   584.2    3.1      48.322
2013    6        5     3  57    3.08   584.1    3.1      48.312
2013    6        5     4   3    3.08   584.0    3.1      48.303
2013    6        5     4  10    3.08   583.9    3.1      48.292
2013    6        5     4  16    3.08   583.8    3.1      48.282
2013    6        5     4  23    3.08   583.7    3.1      48.272
2013    6        5     4  29    3.08   583.6    3.1      48.261
2013    6        5     4  35    3.08   583.5    3.1      48.250
2013    6        5     4  42    3.08   583.4    3.1      48.239
2013    6        5     4  48    3.08   583.3    3.1      48.227
2013    6        5     4  55    3.08   583.2    3.1      48.216
2013    6        5     5   1    3.08   583.1    3.1      48.204
2013    6        5     5   8    3.08   583.0    3.1      48.193
2013    6        5     5  14    3.08   582.9    3.1      48.181
2013    6        5     5  20    3.07   582.8    3.1      48.170
2013    6        5     5  27    3.07   582.7    3.1      48.159
2013    6        5     5  33    3.07   582.6    3.1      48.149
2013    6        5     5  40    3.07   582.5    3.1      48.140
2013    6        5     5  46    3.07   582.4    3.1      48.130
2013    6        5     5  53    3.07   582.2    3.1      48.121
2013    6        5     5  59    3.07   582.1    3.1      48.112
2013    6        5     6   5    3.07   582.0    3.1      48.103
2013    6        5     6  12    3.07   581.9    3.1      48.093
2013    6        5     6  18    3.07   581.8    3.1      48.084
2013    6        5     6  25    3.07   581.7    3.1      48.074
2013    6        5     6  31    3.07   581.6    3.1      48.065
2013    6        5     6  38    3.07   581.5    3.2      48.055
2013    6        5     6  44    3.07   581.4    3.2      48.045
2013    6        5     6  50    3.07   581.3    3.2      48.035
2013    6        5     6  57    3.07   581.2    3.2      48.025
2013    6        5     7   3    3.07   581.1    3.2      48.015
2013    6        5     7  10    3.07   581.0    3.2      48.005
2013    6        5     7  16    3.07   580.9    3.2      47.995
2013    6        5     7  22    3.07   580.8    3.2      47.985
2013    6        5     7  29    3.07   580.7    3.2      47.975
2013    6        5     7  35    3.07   580.6    3.2      47.965
2013    6        5     7  42    3.07   580.5    3.2      47.955
2013    6        5     7  48    3.07   580.4    3.2      47.946
2013    6        5     7  55    3.07   580.3    3.2      47.936
2013    6        5     8   1    3.07   580.2    3.2      47.926
2013    6        5     8   7    3.07   580.1    3.2      47.916
2013    6        5     8  14    3.06   580.0    3.2      47.906
2013    6        5     8  20    3.06   579.9    3.2      47.896
2013    6        5     8  27    3.06   579.8    3.2      47.885
2013    6        5     8  33    3.06   579.7    3.2      47.875
2013    6        5     8  40    3.06   579.7    3.2      47.864
2013    6        5     8  46    3.06   579.6    3.2      47.853
2013    6        5     8  52    3.06   579.5    3.2      47.842
2013    6        5     8  59    3.06   579.4    3.2      47.831
2013    6        5     9   5    3.06   579.3    3.2      47.819
2013    6        5     9  12    3.06   579.2    3.2      47.808
2013    6        5     9  18    3.06   579.1    3.2      47.797
2013    6        5     9  25    3.06   579.0    3.2      47.786
2013    6        5     9  31    3.06   579.0    3.2      47.774
2013    6        5     9  37    3.06   578.9    3.2      47.763
2013    6        5     9  44    3.06   578.8    3.2      47.752
2013    6        5     9  50    3.06   578.7    3.2      47.741
2013    6        5     9  57    3.06   578.6    3.2      47.729
2013    6        5    10   3    3.06   578.5    3.2      47.718
2013    6        5    10  10    3.05   578.4    3.2      47.708
2013    6        5    10  16    3.05   578.3    3.2      47.697
2013    6        5    10  23    3.05   578.3    3.2      47.687
2013    6        5    10  29    3.05   578.2    3.2      47.676
2013    6        5    10  35    3.05   578.1    3.2      47.666
2013    6        5    10  42    3.05   578.0    3.2      47.657
2013    6        5    10  48    3.05   577.9    3.2      47.646
2013    6        5    10  55    3.05   577.8    3.2      47.636
2013    6        5    11   1    3.05   577.8    3.2      47.626
2013    6        5    11   8    3.05   577.7    3.2      47.615
2013    6        5    11  14    3.05   577.6    3.2      47.603
2013    6        5    11  20    3.05   577.5    3.2      47.591
2013    6        5    11  27    3.05   577.4    3.2      47.579
2013    6        5    11  33    3.04   577.3    3.2      47.567
2013    6        5    11  40    3.04   577.2    3.2      47.554
2013    6        5    11  46    3.04   577.2    3.2      47.540
2013    6        5    11  53    3.04   577.1    3.2      47.526
2013    6        5    11  59    3.04   577.0    3.2      47.512
2013    6        5    12   5    3.04   576.9    3.2      47.497
2013    6        5    12  12    3.04   576.8    3.2      47.482
2013    6        5    12  18    3.04   576.7    3.2      47.467
2013    6        5    12  25    3.04   576.6    3.2      47.451
2013    6        5    12  31    3.04   576.5    3.2      47.435
2013    6        5    12  38    3.03   576.4    3.2      47.418
2013    6        5    12  44    3.03   576.3    3.2      47.401
2013    6        5    12  50    3.03   576.2    3.2      47.383
2013    6        5    12  57    3.03   576.1    3.2      47.366
2013    6        5    13   3    3.03   576.1    3.2      47.348
2013    6        5    13  10    3.03   576.0    3.2      47.329
2013    6        5    13  16    3.03   575.9    3.2      47.310
2013    6        5    13  23    3.03   575.8    3.2      47.291
2013    6        5    13  29    3.03   575.7    3.2      47.271
2013    6        5    13  35    3.02   575.5    3.2      47.251
2013    6        5    13  42    3.02   575.4    3.2      47.231
2013    6        5    13  48    3.02   575.3    3.2      47.210
2013    6        5    13  55    3.02   575.2    3.2      47.188
2013    6        5    14   1    3.02   575.1    3.2      47.167
2013    6        5    14   8    3.02   575.0    3.2      47.145
2013    6        5    14  14    3.02   574.9    3.2      47.122
2013    6        5    14  20    3.02   574.8    3.2      47.100
2013    6        5    14  27    3.02   574.7    3.2      47.077
2013    6        5    14  33    3.01   574.6    3.2      47.054
2013    6        5    14  40    3.01   574.5    3.2      47.030
2013    6        5    14  46    3.01   574.4    3.2      47.007
2013    6        5    14  52    3.01   574.3    3.2      46.985
2013    6        5    14  59    3.01   574.2    3.2      46.962
2013    6        5    15   5    3.01   574.1    3.2      46.940
2013    6        5    15  12    3.01   573.9    3.2      46.917
2013    6        5    15  18    3.01   573.8    3.2      46.895
2013    6        5    15  25    3.00   573.7    3.2      46.873
2013    6        5    15  31    3.00   573.6    3.2      46.851
2013    6        5    15  37    3.00   573.5    3.2      46.830
2013    6        5    15  44    3.00   573.4    3.2      46.809
2013    6        5    15  50    3.00   573.3    3.2      46.788
2013    6        5    15  57    3.00   573.2    3.2      46.767
2013    6        5    16   3    3.00   573.1    3.2      46.747
2013    6        5    16  10    3.00   572.9    3.2      46.727
2013    6        5    16  16    3.00   572.8    3.2      46.708
2013    6        5    16  22    2.99   572.7    3.2      46.690
2013    6        5    16  29    2.99   572.6    3.2      46.673
2013    6        5    16  35    2.99   572.5    3.2      46.656
2013    6        5    16  42    2.99   572.4    3.2      46.639
2013    6        5    16  48    2.99   572.3    3.2      46.623
2013    6        5    16  55    2.99   572.2    3.2      46.607
2013    6        5    17   1    2.99   572.0    3.2      46.590
2013    6        5    17   8    2.99   571.9    3.2      46.574
2013    6        5    17  14    2.99   571.8    3.2      46.558
2013    6        5    17  20    2.98   571.7    3.2      46.541
2013    6        5    17  27    2.98   571.6    3.2      46.525
2013    6        5    17  33    2.98   571.5    3.2      46.509
2013    6        5    17  40    2.98   571.4    3.2      46.492
2013    6        5    17  46    2.98   571.3    3.2      46.477
2013    6        5    17  53    2.98   571.2    3.2      46.461
2013    6        5    17  59    2.98   571.0    3.2      46.445
2013    6        5    18   5    2.97   570.9    3.2      46.429
2013    6        5    18  12    2.97   570.8    3.2      46.412
2013    6        5    18  18    2.97   570.7    3.2      46.396
2013    6        5    18  25    2.97   570.6    3.2      46.379
2013    6        5    18  31    2.97   570.5    3.2      46.362
2013    6        5    18  38    2.97   570.4    3.2      46.345
2013    6        5    18  44    2.97   570.3    3.2      46.327
2013    6        5    18  50    2.96   570.2    3.2      46.309
2013    6        5    18  57    2.96   570.1    3.2      46.289
2013    6        5    19   3    2.96   569.9    3.2      46.269
2013    6        5    19  10    2.96   569.8    3.2      46.249
2013    6        5    19  16    2.96   569.7    3.2      46.227
2013    6        5    19  23    2.96   569.6    3.2      46.205
2013    6        5    19  29    2.95   569.5    3.2      46.181
2013    6        5    19  35    2.95   569.4    3.2      46.157
2013    6        5    19  42    2.95   569.3    3.2      46.133
2013    6        5    19  48    2.95   569.1    3.2      46.107
2013    6        5    19  55    2.95   569.0    3.2      46.081
2013    6        5    20   1    2.95   568.9    3.2      46.054
2013    6        5    20   8    2.94   568.8    3.2      46.026
2013    6        5    20  14    2.94   568.7    3.2      45.997
2013    6        5    20  20    2.94   568.6    3.2      45.968
2013    6        5    20  27    2.94   568.4    3.2      45.938
2013    6        5    20  33    2.94   568.3    3.2      45.908
2013    6        5    20  40    2.94   568.2    3.2      45.877
2013    6        5    20  46    2.93   568.1    3.2      45.845
2013    6        5    20  53    2.93   567.9    3.2      45.812
2013    6        5    20  59    2.93   567.8    3.2      45.778
2013    6        5    21   5    2.93   567.7    3.2      45.744
2013    6        5    21  12    2.93   567.6    3.2      45.709
2013    6        5    21  18    2.92   567.4    3.2      45.673
2013    6        5    21  25    2.92   567.3    3.2      45.637
2013    6        5    21  31    2.92   567.2    3.2      45.600
2013    6        5    21  38    2.92   567.0    3.2      45.563
2013    6        5    21  44    2.92   566.9    3.2      45.525
2013    6        5    21  50    2.91   566.8    3.2      45.487
2013    6        5    21  57    2.91   566.6    3.2      45.448
2013    6        5    22   3    2.91   566.5    3.2      45.410
2013    6        5    22  10    2.91   566.4    3.2      45.371
2013    6        5    22  16    2.91   566.2    3.2      45.333
2013    6        5    22  22    2.90   566.1    3.2      45.294
2013    6        5    22  29    2.90   565.9    3.2      45.256
2013    6        5    22  35    2.90   565.8    3.2      45.218
2013    6        5    22  42    2.90   565.6    3.2      45.180
2013    6        5    22  48    2.90   565.5    3.2      45.143
2013    6        5    22  55    2.90   565.3    3.2      45.107
2013    6        5    23   1    2.89   565.2    3.2      45.072
2013    6        5    23   7    2.89   565.0    3.2      45.037
2013    6        5    23  14    2.89   564.9    3.2      45.004
2013    6        5    23  20    2.89   564.7    3.2      44.971
2013    6        5    23  27    2.89   564.6    3.2      44.939
2013    6        5    23  33    2.88   564.4    3.2      44.908
2013    6        5    23  40    2.88   564.3    3.2      44.878
2013    6        5    23  46    2.88   564.1    3.2      44.850
2013    6        5    23  53    2.88   563.9    3.2      44.823
2013    6        5    23  59    2.88   563.8    3.2      44.796
2013    6        6     0   5    2.88   563.6    3.2      44.771
2013    6        6     0  12    2.87   563.5    3.2      44.746
2013    6        6     0  18    2.87   563.3    3.2      44.720
2013    6        6     0  25    2.87   563.1    3.2      44.695
2013    6        6     0  31    2.87   563.0    3.2      44.670
2013    6        6     0  38    2.87   562.8    3.2      44.645
2013    6        6     0  44    2.87   562.6    3.2      44.619
2013    6        6     0  50    2.86   562.5    3.2      44.594
2013    6        6     0  57    2.86   562.3    3.2      44.568
2013    6        6     1   3    2.86   562.1    3.2      44.542
2013    6        6     1  10    2.86   562.0    3.2      44.515
2013    6        6     1  16    2.86   561.8    3.2      44.489
2013    6        6     1  23    2.86   561.6    3.2      44.462
2013    6        6     1  29    2.85   561.5    3.2      44.434
2013    6        6     1  35    2.85   561.3    3.2      44.405
2013    6        6     1  42    2.85   561.1    3.2      44.376
2013    6        6     1  48    2.85   560.9    3.2      44.347
2013    6        6     1  55    2.85   560.8    3.2      44.318
2013    6        6     2   1    2.84   560.6    3.2      44.288
2013    6        6     2   8    2.84   560.4    3.2      44.258
2013    6        6     2  14    2.84   560.3    3.2      44.226
2013    6        6     2  20    2.84   560.1    3.2      44.194
2013    6        6     2  27    2.84   559.9    3.2      44.161
2013    6        6     2  33    2.84   559.7    3.2      44.128
2013    6        6     2  40    2.83   559.6    3.2      44.093
2013    6        6     2  46    2.83   559.4    3.2      44.058
2013    6        6     2  53    2.83   559.2    3.2      44.021
2013    6        6     2  59    2.83   559.1    3.2      43.984
2013    6        6     3   5    2.83   558.9    3.2      43.947
2013    6        6     3  12    2.82   558.7    3.2      43.908
2013    6        6     3  18    2.82   558.5    3.2      43.869
2013    6        6     3  25    2.82   558.4    3.2      43.830
2013    6        6     3  31    2.82   558.2    3.2      43.789
2013    6        6     3  38    2.82   558.0    3.2      43.748
2013    6        6     3  44    2.81   557.8    3.2      43.707
2013    6        6     3  50    2.81   557.7    3.2      43.665
2013    6        6     3  57    2.81   557.5    3.2      43.622
2013    6        6     4   3    2.81   557.3    3.2      43.579
2013    6        6     4  10    2.81   557.1    3.2      43.535
2013    6        6     4  16    2.80   557.0    3.2      43.491
2013    6        6     4  23    2.80   556.8    3.2      43.447
2013    6        6     4  29    2.80   556.6    3.2      43.402
2013    6        6     4  35    2.80   556.4    3.2      43.356
2013    6        6     4  42    2.80   556.3    3.2      43.310
2013    6        6     4  48    2.79   556.1    3.2      43.264
2013    6        6     4  55    2.79   555.9    3.2      43.217
2013    6        6     5   1    2.79   555.7    3.2      43.170
2013    6        6     5   8    2.79   555.5    3.2      43.123
2013    6        6     5  14    2.79   555.4    3.2      43.076
2013    6        6     5  20    2.78   555.2    3.2      43.028
2013    6        6     5  27    2.78   555.0    3.2      42.980
2013    6        6     5  33    2.78   554.8    3.2      42.932
2013    6        6     5  40    2.78   554.6    3.2      42.884
2013    6        6     5  46    2.78   554.4    3.2      42.835
2013    6        6     5  52    2.77   554.2    3.2      42.787
2013    6        6     5  59    2.77   554.0    3.2      42.738
2013    6        6     6   5    2.77   553.9    3.2      42.690
2013    6        6     6  12    2.77   553.7    3.2      42.642
2013    6        6     6  18    2.77   553.5    3.2      42.594
2013    6        6     6  25    2.76   553.3    3.2      42.547
2013    6        6     6  31    2.76   553.1    3.2      42.499
2013    6        6     6  37    2.76   552.9    3.2      42.453
2013    6        6     6  44    2.76   552.7    3.2      42.406
2013    6        6     6  50    2.76   552.5    3.2      42.361
2013    6        6     6  57    2.75   552.3    3.2      42.316
2013    6        6     7   3    2.75   552.1    3.2      42.272
2013    6        6     7  10    2.75   551.8    3.2      42.228
2013    6        6     7  16    2.75   551.6    3.2      42.185
2013    6        6     7  23    2.75   551.4    3.2      42.143
2013    6        6     7  29    2.74   551.2    3.2      42.101
2013    6        6     7  35    2.74   551.0    3.2      42.060
2013    6        6     7  42    2.74   550.8    3.2      42.020
2013    6        6     7  48    2.74   550.6    3.2      41.981
2013    6        6     7  55    2.74   550.4    3.2      41.942
2013    6        6     8   1    2.74   550.1    3.2      41.903
2013    6        6     8   8    2.73   549.9    3.2      41.865
2013    6        6     8  14    2.73   549.7    3.2      41.827
2013    6        6     8  20    2.73   549.5    3.2      41.789
2013    6        6     8  27    2.73   549.3    3.2      41.752
2013    6        6     8  33    2.73   549.0    3.2      41.714
2013    6        6     8  40    2.73   548.8    3.2      41.676
2013    6        6     8  46    2.72   548.6    3.2      41.637
2013    6        6     8  53    2.72   548.4    3.2      41.598
2013    6        6     8  59    2.72   548.1    3.2      41.558
2013    6        6     9   5    2.72   547.9    3.2      41.518
2013    6        6     9  12    2.72   547.7    3.2      41.477
2013    6        6     9  18    2.72   547.5    3.2      41.436
2013    6        6     9  25    2.71   547.2    3.2      41.394
2013    6        6     9  31    2.71   547.0    3.2      41.351
2013    6        6     9  38    2.71   546.8    3.2      41.309
2013    6        6     9  44    2.71   546.5    3.2      41.265
2013    6        6     9  50    2.71   546.3    3.2      41.222
2013    6        6     9  57    2.71   546.1    3.2      41.178
2013    6        6    10   3    2.70   545.8    3.2      41.133
2013    6        6    10  10    2.70   545.6    3.2      41.089
2013    6        6    10  16    2.70   545.4    3.2      41.044
2013    6        6    10  23    2.70   545.1    3.2      40.998
2013    6        6    10  29    2.70   544.9    3.2      40.953
2013    6        6    10  35    2.70   544.7    3.2      40.907
2013    6        6    10  42    2.69   544.5    3.2      40.861
2013    6        6    10  48    2.69   544.2    3.2      40.815
2013    6        6    10  55    2.69   544.0    3.2      40.769
2013    6        6    11   1    2.69   543.8    3.2      40.723
2013    6        6    11   8    2.69   543.5    3.2      40.677
2013    6        6    11  14    2.69   543.3    3.2      40.630
2013    6        6    11  20    2.68   543.1    3.2      40.584
2013    6        6    11  27    2.68   542.8    3.2      40.537
2013    6        6    11  33    2.68   542.6    3.2      40.490
2013    6        6    11  40    2.68   542.4    3.2      40.444
2013    6        6    11  46    2.68   542.2    3.2      40.397
2013    6        6    11  53    2.68   541.9    3.2      40.350
2013    6        6    11  59    2.67   541.7    3.2      40.303
2013    6        6    12   5    2.67   541.5    3.2      40.256
2013    6        6    12  12    2.67   541.2    3.2      40.209
2013    6        6    12  18    2.67   541.0    3.2      40.161
2013    6        6    12  25    2.67   540.8    3.2      40.114
2013    6        6    12  31    2.67   540.5    3.2      40.066
2013    6        6    12  37    2.66   540.3    3.2      40.019
2013    6        6    12  44    2.66   540.1    3.2      39.971
2013    6        6    12  50    2.66   539.9    3.2      39.923
2013    6        6    12  57    2.66   539.6    3.2      39.875
2013    6        6    13   3    2.66   539.4    3.2      39.826
2013    6        6    13  10    2.66   539.1    3.2      39.778
2013    6        6    13  16    2.65   538.9    3.2      39.729
2013    6        6    13  22    2.65   538.7    3.2      39.681
2013    6        6    13  29    2.65   538.4    3.2      39.632
2013    6        6    13  35    2.65   538.2    3.2      39.583
2013    6        6    13  42    2.65   537.9    3.2      39.534
2013    6        6    13  48    2.65   537.7    3.2      39.485
2013    6        6    13  55    2.64   537.5    3.2      39.437
2013    6        6    14   1    2.64   537.2    3.2      39.388
2013    6        6    14   7    2.64   537.0    3.2      39.340
2013    6        6    14  14    2.64   536.7    3.2      39.291
2013    6        6    14  20    2.64   536.5    3.2      39.244
2013    6        6    14  27    2.64   536.2    3.2      39.196
2013    6        6    14  33    2.63   536.0    3.2      39.149
2013    6        6    14  40    2.63   535.7    3.2      39.102
2013    6        6    14  46    2.63   535.5    3.2      39.055
2013    6        6    14  53    2.63   535.2    3.2      39.008
2013    6        6    14  59    2.63   534.9    3.2      38.963
2013    6        6    15   5    2.63   534.7    3.2      38.917
2013    6        6    15  12    2.63   534.4    3.2      38.871
2013    6        6    15  18    2.62   534.2    3.2      38.826
2013    6        6    15  25    2.62   533.9    3.2      38.781
2013    6        6    15  31    2.62   533.6    3.2      38.736
2013    6        6    15  38    2.62   533.4    3.2      38.692
2013    6        6    15  44    2.62   533.1    3.2      38.647
2013    6        6    15  50    2.62   532.8    3.2      38.602
2013    6        6    15  57    2.62   532.6    3.2      38.558
2013    6        6    16   3    2.61   532.3    3.2      38.513
2013    6        6    16  10    2.61   532.0    3.2      38.468
2013    6        6    16  16    2.61   531.8    3.2      38.423
2013    6        6    16  23    2.61   531.5    3.2      38.378
2013    6        6    16  29    2.61   531.2    3.2      38.332
2013    6        6    16  35    2.61   530.9    3.2      38.286
2013    6        6    16  42    2.61   530.7    3.2      38.241
2013    6        6    16  48    2.60   530.4    3.2      38.195
2013    6        6    16  55    2.60   530.1    3.2      38.148
2013    6        6    17   1    2.60   529.8    3.2      38.102
2013    6        6    17   8    2.60   529.5    3.2      38.055
2013    6        6    17  14    2.60   529.3    3.2      38.009
2013    6        6    17  20    2.60   529.0    3.2      37.962
2013    6        6    17  27    2.60   528.7    3.2      37.915
2013    6        6    17  33    2.59   528.4    3.2      37.868
2013    6        6    17  40    2.59   528.1    3.2      37.821
2013    6        6    17  46    2.59   527.8    3.2      37.775
2013    6        6    17  53    2.59   527.5    3.2      37.728
2013    6        6    17  59    2.59   527.3    3.2      37.681
2013    6        6    18   5    2.59   527.0    3.2      37.635
2013    6        6    18  12    2.59   526.7    3.2      37.588
2013    6        6    18  18    2.59   526.4    3.2      37.542
2013    6        6    18  25    2.58   526.1    3.2      37.496
2013    6        6    18  31    2.58   525.8    3.2      37.450
2013    6        6    18  38    2.58   525.5    3.2      37.405
2013    6        6    18  44    2.58   525.2    3.2      37.360
2013    6        6    18  50    2.58   524.9    3.2      37.315
2013    6        6    18  57    2.58   524.7    3.2      37.270
2013    6        6    19   3    2.58   524.4    3.2      37.225
2013    6        6    19  10    2.58   524.1    3.2      37.181
2013    6        6    19  16    2.58   523.8    3.2      37.137
2013    6        6    19  23    2.57   523.5    3.2      37.093
2013    6        6    19  29    2.57   523.2    3.2      37.050
2013    6        6    19  35    2.57   522.9    3.2      37.006
2013    6        6    19  42    2.57   522.6    3.2      36.964
2013    6        6    19  48    2.57   522.3    3.2      36.921
2013    6        6    19  55    2.57   522.0    3.2      36.879
2013    6        6    20   1    2.57   521.7    3.2      36.837
2013    6        6    20   7    2.57   521.4    3.2      36.795
2013    6        6    20  14    2.57   521.1    3.2      36.754
2013    6        6    20  20    2.57   520.9    3.2      36.713
2013    6        6    20  27    2.56   520.6    3.2      36.672
2013    6        6    20  33    2.56   520.3    3.2      36.631
2013    6        6    20  40    2.56   520.0    3.2      36.591
2013    6        6    20  46    2.56   519.7    3.2      36.551
2013    6        6    20  52    2.56   519.4    3.2      36.511
2013    6        6    20  59    2.56   519.1    3.2      36.471
2013    6        6    21   5    2.56   518.8    3.2      36.432
2013    6        6    21  12    2.56   518.5    3.3      36.393
2013    6        6    21  18    2.56   518.2    3.3      36.354
2013    6        6    21  25    2.56   517.9    3.3      36.315
2013    6        6    21  31    2.55   517.6    3.3      36.277
2013    6        6    21  37    2.55   517.3    3.3      36.238
2013    6        6    21  44    2.55   517.0    3.3      36.200
2013    6        6    21  50    2.55   516.7    3.3      36.162
2013    6        6    21  57    2.55   516.4    3.3      36.123
2013    6        6    22   3    2.55   516.1    3.3      36.085
2013    6        6    22  10    2.55   515.8    3.3      36.047
2013    6        6    22  16    2.55   515.4    3.3      36.009
2013    6        6    22  23    2.55   515.1    3.3      35.971
2013    6        6    22  29    2.55   514.8    3.3      35.933
2013    6        6    22  35    2.55   514.5    3.3      35.894
2013    6        6    22  42    2.54   514.2    3.3      35.857
2013    6        6    22  48    2.54   513.9    3.3      35.819
2013    6        6    22  55    2.54   513.6    3.3      35.781
2013    6        6    23   1    2.54   513.3    3.3      35.743
2013    6        6    23   8    2.54   513.0    3.3      35.705
2013    6        6    23  14    2.54   512.6    3.3      35.666
2013    6        6    23  20    2.54   512.3    3.3      35.628
2013    6        6    23  27    2.54   512.0    3.3      35.590
2013    6        6    23  33    2.54   511.7    3.3      35.552
2013    6        6    23  40    2.54   511.4    3.3      35.514
2013    6        6    23  46    2.54   511.1    3.3      35.476
2013    6        6    23  53    2.54   510.7    3.3      35.437
2013    6        6    23  59    2.54   510.4    3.3      35.399
2013    6        7     0   5    2.54   510.1    3.3      35.361
2013    6        7     0  12    2.54   509.8    3.3      35.322
2013    6        7     0  18    2.53   509.5    3.3      35.284
2013    6        7     0  25    2.53   509.1    3.3      35.245
2013    6        7     0  31    2.53   508.8    3.3      35.207
2013    6        7     0  38    2.53   508.5    3.3      35.168
2013    6        7     0  44    2.53   508.2    3.3      35.129
2013    6        7     0  50    2.53   507.8    3.3      35.090
2013    6        7     0  57    2.53   507.5    3.3      35.051
2013    6        7     1   3    2.53   507.2    3.3      35.011
2013    6        7     1  10    2.53   506.9    3.3      34.972
2013    6        7     1  16    2.53   506.6    3.3      34.932
2013    6        7     1  23    2.53   506.2    3.3      34.892
2013    6        7     1  29    2.53   505.9    3.3      34.852
2013    6        7     1  35    2.53   505.6    3.3      34.812
2013    6        7     1  42    2.53   505.2    3.3      34.772
2013    6        7     1  48    2.53   504.9    3.3      34.732
2013    6        7     1  55    2.53   504.6    3.3      34.692
2013    6        7     2   1    2.53   504.3    3.3      34.652
2013    6        7     2   8    2.53   503.9    3.4      34.613
2013    6        7     2  14    2.53   503.6    3.4      34.573
2013    6        7     2  20    2.53   503.3    3.4      34.534
2013    6        7     2  27    2.53   503.0    3.4      34.495
2013    6        7     2  33    2.53   502.6    3.4      34.456
2013    6        7     2  40    2.53   502.3    3.4      34.417
2013    6        7     2  46    2.53   502.0    3.4      34.379
2013    6        7     2  52    2.53   501.7    3.4      34.341
2013    6        7     2  59    2.53   501.3    3.4      34.303
2013    6        7     3   5    2.53   501.0    3.4      34.266
2013    6        7     3  12    2.53   500.7    3.4      34.229
2013    6        7     3  18    2.53   500.3    3.4      34.192
2013    6        7     3  25    2.53   500.0    3.4      34.156
2013    6        7     3  31    2.53   499.7    3.4      34.120
2013    6        7     3  37    2.53   499.4    3.4      34.085
2013    6        7     3  44    2.53   499.0    3.4      34.050
2013    6        7     3  50    2.53   498.7    3.4      34.015
2013    6        7     3  57    2.53   498.4    3.4      33.981
2013    6        7     4   3    2.53   498.0    3.4      33.947
2013    6        7     4  10    2.53   497.7    3.4      33.914
2013    6        7     4  16    2.53   497.4    3.4      33.881
2013    6        7     4  22    2.53   497.1    3.4      33.849
2013    6        7     4  29    2.53   496.7    3.4      33.817
2013    6        7     4  35    2.53   496.4    3.4      33.785
2013    6        7     4  42    2.53   496.1    3.4      33.754
2013    6        7     4  48    2.53   495.8    3.4      33.723
2013    6        7     4  55    2.54   495.4    3.4      33.693
2013    6        7     5   1    2.54   495.1    3.5      33.663
2013    6        7     5   7    2.54   494.8    3.5      33.633
2013    6        7     5  14    2.54   494.5    3.5      33.604
2013    6        7     5  20    2.54   494.1    3.5      33.575
2013    6        7     5  27    2.54   493.8    3.5      33.547
2013    6        7     5  33    2.54   493.5    3.5      33.519
2013    6        7     5  40    2.54   493.2    3.5      33.491
2013    6        7     5  46    2.54   492.8    3.5      33.463
2013    6        7     5  53    2.54   492.5    3.5      33.436
2013    6        7     5  59    2.54   492.2    3.5      33.409
2013    6        7     6   5    2.54   491.9    3.5      33.383
2013    6        7     6  12    2.54   491.5    3.5      33.357
2013    6        7     6  18    2.54   491.2    3.5      33.331
2013    6        7     6  25    2.55   490.9    3.5      33.305
2013    6        7     6  31    2.55   490.6    3.5      33.280
2013    6        7     6  38    2.55   490.3    3.5      33.254
2013    6        7     6  44    2.55   489.9    3.5      33.229
2013    6        7     6  50    2.55   489.6    3.5      33.205
2013    6        7     6  57    2.55   489.3    3.5      33.180
2013    6        7     7   3    2.55   489.0    3.5      33.155
2013    6        7     7  10    2.55   488.7    3.6      33.131
2013    6        7     7  16    2.55   488.3    3.6      33.107
2013    6        7     7  23    2.56   488.0    3.6      33.082
2013    6        7     7  29    2.56   487.7    3.6      33.058
2013    6        7     7  35    2.56   487.4    3.6      33.034
2013    6        7     7  42    2.56   487.1    3.6      33.010
2013    6        7     7  48    2.56   486.8    3.6      32.986
2013    6        7     7  55    2.56   486.5    3.6      32.962
2013    6        7     8   1    2.56   486.2    3.6      32.937
2013    6        7     8   8    2.56   485.9    3.6      32.913
2013    6        7     8  14    2.57   485.5    3.6      32.888
2013    6        7     8  20    2.57   485.2    3.6      32.863
2013    6        7     8  27    2.57   484.9    3.6      32.837
2013    6        7     8  33    2.57   484.6    3.6      32.811
2013    6        7     8  40    2.57   484.3    3.6      32.785
2013    6        7     8  46    2.57   484.0    3.6      32.759
2013    6        7     8  53    2.58   483.7    3.6      32.732
2013    6        7     8  59    2.58   483.4    3.6      32.706
2013    6        7     9   5    2.58   483.1    3.6      32.679
2013    6        7     9  12    2.58   482.8    3.6      32.652
2013    6        7     9  18    2.58   482.5    3.7      32.625
2013    6        7     9  25    2.58   482.2    3.7      32.598
2013    6        7     9  31    2.59   481.8    3.7      32.570
2013    6        7     9  38    2.59   481.5    3.7      32.543
2013    6        7     9  44    2.59   481.2    3.7      32.516
2013    6        7     9  50    2.59   480.9    3.7      32.490
2013    6        7     9  57    2.59   480.6    3.7      32.463
2013    6        7    10   3    2.60   480.3    3.7      32.437
2013    6        7    10  10    2.60   480.0    3.7      32.410
2013    6        7    10  16    2.60   479.7    3.7      32.385
2013    6        7    10  22    2.60   479.4    3.7      32.359
2013    6        7    10  29    2.60   479.1    3.7      32.334
2013    6        7    10  35    2.61   478.8    3.7      32.309
2013    6        7    10  42    2.61   478.5    3.7      32.285
2013    6        7    10  48    2.61   478.2    3.7      32.261
2013    6        7    10  55    2.61   477.9    3.7      32.237
2013    6        7    11   1    2.62   477.6    3.7      32.214
2013    6        7    11   7    2.62   477.3    3.7      32.192
2013    6        7    11  14    2.62   477.0    3.7      32.170
2013    6        7    11  20    2.62   476.7    3.8      32.148
2013    6        7    11  27    2.63   476.4    3.8      32.127
2013    6        7    11  33    2.63   476.2    3.8      32.107
2013    6        7    11  40    2.63   475.9    3.8      32.087
2013    6        7    11  46    2.63   475.6    3.8      32.068
2013    6        7    11  52    2.64   475.3    3.8      32.049
2013    6        7    11  59    2.64   475.0    3.8      32.032
2013    6        7    12   5    2.64   474.7    3.8      32.014
2013    6        7    12  12    2.64   474.4    3.8      31.998
2013    6        7    12  18    2.65   474.1    3.8      31.982
2013    6        7    12  25    2.65   473.9    3.8      31.967
2013    6        7    12  31    2.65   473.6    3.8      31.953
2013    6        7    12  37    2.66   473.3    3.8      31.939
2013    6        7    12  44    2.66   473.0    3.8      31.926
2013    6        7    12  50    2.66   472.7    3.9      31.914
2013    6        7    12  57    2.66   472.5    3.9      31.903
2013    6        7    13   3    2.67   472.2    3.9      31.892
2013    6        7    13  10    2.67   471.9    3.9      31.882
2013    6        7    13  16    2.67   471.7    3.9      31.873
2013    6        7    13  23    2.68   471.4    3.9      31.864
2013    6        7    13  29    2.68   471.1    3.9      31.856
2013    6        7    13  35    2.68   470.9    3.9      31.849
2013    6        7    13  42    2.69   470.6    3.9      31.842
2013    6        7    13  48    2.69   470.4    3.9      31.836
2013    6        7    13  55    2.69   470.1    3.9      31.830
2013    6        7    14   1    2.70   469.8    3.9      31.825
2013    6        7    14   8    2.70   469.6    4.0      31.821
2013    6        7    14  14    2.70   469.3    4.0      31.817
2013    6        7    14  20    2.71   469.1    4.0      31.813
2013    6        7    14  27    2.71   468.8    4.0      31.810
2013    6        7    14  33    2.71   468.6    4.0      31.807
2013    6        7    14  40    2.72   468.4    4.0      31.804
2013    6        7    14  46    2.72   468.1    4.0      31.802
2013    6        7    14  53    2.73   467.9    4.0      31.800
2013    6        7    14  59    2.73   467.6    4.0      31.799
2013    6        7    15   5    2.73   467.4    4.0      31.798
2013    6        7    15  12    2.74   467.2    4.0      31.797
2013    6        7    15  18    2.74   466.9    4.1      31.796
2013    6        7    15  25    2.74   466.7    4.1      31.796
2013    6        7    15  31    2.75   466.4    4.1      31.796
2013    6        7    15  38    2.75   466.2    4.1      31.796
2013    6        7    15  44    2.76   466.0    4.1      31.796
2013    6        7    15  50    2.76   465.7    4.1      31.796
2013    6        7    15  57    2.76   465.5    4.1      31.797
2013    6        7    16   3    2.77   465.3    4.1      31.798
2013    6        7    16  10    2.77   465.1    4.1      31.799
2013    6        7    16  16    2.77   464.8    4.1      31.801
2013    6        7    16  23    2.78   464.6    4.1      31.803
2013    6        7    16  29    2.78   464.4    4.2      31.806
2013    6        7    16  35    2.79   464.2    4.2      31.809
2013    6        7    16  42    2.79   464.0    4.2      31.813
2013    6        7    16  48    2.79   463.8    4.2      31.818
2013    6        7    16  55    2.80   463.5    4.2      31.823
2013    6        7    17   1    2.80   463.3    4.2      31.828
2013    6        7    17   7    2.80   463.1    4.2      31.834
2013    6        7    17  14    2.81   462.9    4.2      31.841
2013    6        7    17  20    2.81   462.7    4.2      31.847
2013    6        7    17  27    2.82   462.5    4.2      31.854
2013    6        7    17  33    2.82   462.3    4.2      31.862
2013    6        7    17  40    2.82   462.1    4.3      31.869
2013    6        7    17  46    2.83   461.9    4.3      31.877
2013    6        7    17  52    2.83   461.7    4.3      31.886
2013    6        7    17  59    2.84   461.5    4.3      31.894
2013    6        7    18   5    2.84   461.3    4.3      31.903
2013    6        7    18  12    2.85   461.1    4.3      31.911
2013    6        7    18  18    2.85   460.9    4.3      31.920
2013    6        7    18  25    2.85   460.7    4.3      31.930
2013    6        7    18  31    2.86   460.5    4.3      31.939
2013    6        7    18  37    2.86   460.3    4.3      31.949
2013    6        7    18  44    2.87   460.2    4.3      31.958
2013    6        7    18  50    2.87   460.0    4.3      31.969
2013    6        7    18  57    2.87   459.8    4.4      31.979
2013    6        7    19   3    2.88   459.6    4.4      31.990
2013    6        7    19  10    2.88   459.4    4.4      32.000
2013    6        7    19  16    2.89   459.3    4.4      32.012
2013    6        7    19  22    2.89   459.1    4.4      32.023
2013    6        7    19  29    2.90   458.9    4.4      32.035
2013    6        7    19  35    2.90   458.7    4.4      32.048
2013    6        7    19  42    2.90   458.6    4.4      32.060
2013    6        7    19  48    2.91   458.4    4.4      32.074
2013    6        7    19  55    2.91   458.2    4.4      32.087
2013    6        7    20   1    2.92   458.1    4.5      32.101
2013    6        7    20   7    2.92   457.9    4.5      32.116
2013    6        7    20  14    2.93   457.8    4.5      32.131
2013    6        7    20  20    2.93   457.6    4.5      32.146
2013    6        7    20  27    2.93   457.5    4.5      32.162
2013    6        7    20  33    2.94   457.3    4.5      32.178
2013    6        7    20  40    2.94   457.2    4.5      32.195
2013    6        7    20  46    2.95   457.0    4.5      32.212
2013    6        7    20  53    2.95   456.9    4.5      32.230
2013    6        7    20  59    2.96   456.7    4.5      32.248
2013    6        7    21   5    2.96   456.6    4.6      32.267
2013    6        7    21  12    2.96   456.4    4.6      32.286
2013    6        7    21  18    2.97   456.3    4.6      32.306
2013    6        7    21  25    2.97   456.2    4.6      32.326
2013    6        7    21  31    2.98   456.0    4.6      32.347
2013    6        7    21  38    2.98   455.9    4.6      32.368
2013    6        7    21  44    2.99   455.8    4.6      32.390
2013    6        7    21  50    2.99   455.6    4.6      32.412
2013    6        7    21  57    3.00   455.5    4.6      32.434
2013    6        7    22   3    3.00   455.4    4.7      32.457
2013    6        7    22  10    3.01   455.3    4.7      32.481
2013    6        7    22  16    3.01   455.2    4.7      32.505
2013    6        7    22  23    3.02   455.0    4.7      32.531
2013    6        7    22  29    3.02   454.9    4.7      32.559
2013    6        7    22  35    3.02   454.8    4.7      32.587
2013    6        7    22  42    3.03   454.7    4.7      32.616
2013    6        7    22  48    3.03   454.6    4.7      32.646
2013    6        7    22  55    3.04   454.5    4.7      32.677
2013    6        7    23   1    3.04   454.4    4.8      32.707
2013    6        7    23   8    3.05   454.3    4.8      32.737
2013    6        7    23  14    3.05   454.2    4.8      32.767
2013    6        7    23  20    3.06   454.1    4.8      32.797
2013    6        7    23  27    3.06   454.0    4.8      32.827
2013    6        7    23  33    3.06   454.0    4.8      32.857
2013    6        7    23  40    3.07   453.9    4.8      32.888
2013    6        7    23  46    3.07   453.8    4.8      32.918
2013    6        7    23  52    3.08   453.7    4.8      32.949
2013    6        7    23  59    3.08   453.6    4.9      32.979
2013    6        8     0   5    3.08   453.5    4.9      33.008
2013    6        8     0  12    3.09   453.5    4.9      33.037
2013    6        8     0  18    3.09   453.4    4.9      33.065
2013    6        8     0  25    3.09   453.3    4.9      33.095
2013    6        8     0  31    3.10   453.2    4.9      33.124
2013    6        8     0  37    3.10   453.2    4.9      33.153
2013    6        8     0  44    3.11   453.1    4.9      33.183
2013    6        8     0  50    3.11   453.0    4.9      33.213
2013    6        8     0  57    3.11   453.0    4.9      33.243
2013    6        8     1   3    3.12   452.9    4.9      33.273
2013    6        8     1  10    3.12   452.8    5.0      33.303
2013    6        8     1  16    3.12   452.8    5.0      33.333
2013    6        8     1  22    3.13   452.7    5.0      33.363
2013    6        8     1  29    3.13   452.6    5.0      33.393
2013    6        8     1  35    3.13   452.6    5.0      33.422
2013    6        8     1  42    3.13   452.5    5.0      33.451
2013    6        8     1  48    3.14   452.4    5.0      33.480
2013    6        8     1  55    3.14   452.4    5.0      33.508
2013    6        8     2   1    3.14   452.3    5.0      33.536
2013    6        8     2   7    3.15   452.3    5.0      33.564
2013    6        8     2  14    3.15   452.2    5.0      33.591
2013    6        8     2  20    3.15   452.2    5.0      33.618
2013    6        8     2  27    3.16   452.1    5.0      33.644
2013    6        8     2  33    3.16   452.0    5.0      33.671
2013    6        8     2  40    3.16   452.0    5.1      33.697
2013    6        8     2  46    3.17   451.9    5.1      33.722
2013    6        8     2  52    3.17   451.9    5.1      33.748
2013    6        8     2  59    3.17   451.8    5.1      33.773
2013    6        8     3   5    3.18   451.8    5.1      33.798
2013    6        8     3  12    3.18   451.7    5.1      33.823
2013    6        8     3  18    3.18   451.7    5.1      33.847
2013    6        8     3  25    3.18   451.6    5.1      33.872
2013    6        8     3  31    3.19   451.6    5.1      33.896
2013    6        8     3  37    3.19   451.6    5.1      33.920
2013    6        8     3  44    3.19   451.5    5.1      33.944
2013    6        8     3  50    3.20   451.5    5.1      33.968
2013    6        8     3  57    3.20   451.4    5.1      33.992
2013    6        8     4   3    3.20   451.4    5.1      34.015
2013    6        8     4  10    3.20   451.3    5.1      34.039
2013    6        8     4  16    3.21   451.3    5.1      34.063
2013    6        8     4  23    3.21   451.3    5.2      34.086
2013    6        8     4  29    3.21   451.2    5.2      34.110
2013    6        8     4  35    3.22   451.2    5.2      34.134
2013    6        8     4  42    3.22   451.2    5.2      34.157
2013    6        8     4  48    3.22   451.1    5.2      34.181
2013    6        8     4  55    3.23   451.1    5.2      34.204
2013    6        8     5   1    3.23   451.0    5.2      34.228
2013    6        8     5   8    3.23   451.0    5.2      34.252
2013    6        8     5  14    3.23   451.0    5.2      34.276
2013    6        8     5  20    3.24   451.0    5.2      34.300
2013    6        8     5  27    3.24   450.9    5.2      34.324
2013    6        8     5  33    3.24   450.9    5.2      34.349
2013    6        8     5  40    3.25   450.9    5.2      34.374
2013    6        8     5  46    3.25   450.8    5.2      34.399
2013    6        8     5  53    3.25   450.8    5.2      34.426
2013    6        8     5  59    3.25   450.8    5.3      34.452
2013    6        8     6   5    3.26   450.8    5.3      34.479
2013    6        8     6  12    3.26   450.8    5.3      34.506
2013    6        8     6  18    3.26   450.8    5.3      34.534
2013    6        8     6  25    3.27   450.7    5.3      34.561
2013    6        8     6  31    3.27   450.7    5.3      34.589
2013    6        8     6  37    3.27   450.7    5.3      34.617
2013    6        8     6  44    3.27   450.7    5.3      34.645
2013    6        8     6  50    3.27   450.7    5.3      34.673
2013    6        8     6  57    3.28   450.7    5.3      34.701
2013    6        8     7   3    3.28   450.7    5.3      34.728
2013    6        8     7  10    3.28   450.7    5.3      34.755
2013    6        8     7  16    3.28   450.6    5.3      34.782
2013    6        8     7  22    3.28   450.6    5.3      34.809
2013    6        8     7  29    3.29   450.6    5.3      34.835
2013    6        8     7  35    3.29   450.6    5.3      34.862
2013    6        8     7  42    3.29   450.6    5.3      34.888
2013    6        8     7  48    3.29   450.6    5.4      34.914
2013    6        8     7  55    3.29   450.6    5.4      34.940
2013    6        8     8   1    3.30   450.6    5.4      34.966
2013    6        8     8   7    3.30   450.6    5.4      34.991
2013    6        8     8  14    3.30   450.6    5.4      35.017
2013    6        8     8  20    3.30   450.6    5.4      35.043
2013    6        8     8  27    3.30   450.6    5.4      35.068
2013    6        8     8  33    3.30   450.6    5.4      35.093
2013    6        8     8  40    3.30   450.6    5.4      35.119
2013    6        8     8  46    3.31   450.6    5.4      35.143
2013    6        8     8  52    3.31   450.6    5.4      35.168
2013    6        8     8  59    3.31   450.6    5.4      35.192
2013    6        8     9   5    3.31   450.6    5.4      35.216
2013    6        8     9  12    3.31   450.6    5.4      35.240
2013    6        8     9  18    3.31   450.6    5.4      35.263
2013    6        8     9  24    3.31   450.6    5.4      35.286
2013    6        8     9  31    3.32   450.6    5.4      35.309
2013    6        8     9  37    3.32   450.6    5.4      35.331
2013    6        8     9  44    3.32   450.6    5.4      35.353
2013    6        8     9  50    3.32   450.6    5.4      35.374
2013    6        8     9  57    3.32   450.6    5.4      35.395
2013    6        8    10   3    3.32   450.6    5.4      35.415
2013    6        8    10  10    3.32   450.6    5.4      35.436
2013    6        8    10  16    3.32   450.6    5.4      35.455
2013    6        8    10  22    3.32   450.6    5.4      35.475
2013    6        8    10  29    3.33   450.6    5.4      35.494
2013    6        8    10  35    3.33   450.6    5.4      35.512
2013    6        8    10  42    3.33   450.6    5.5      35.530
2013    6        8    10  48    3.33   450.6    5.5      35.548
2013    6        8    10  55    3.33   450.6    5.5      35.566
2013    6        8    11   1    3.33   450.6    5.5      35.583
2013    6        8    11   7    3.33   450.6    5.5      35.599
2013    6        8    11  14    3.33   450.6    5.5      35.616
2013    6        8    11  20    3.33   450.6    5.5      35.632
2013    6        8    11  27    3.34   450.6    5.5      35.648
2013    6        8    11  33    3.34   450.6    5.5      35.664
2013    6        8    11  40    3.34   450.6    5.5      35.679
2013    6        8    11  46    3.34   450.6    5.5      35.694
2013    6        8    11  53    3.34   450.6    5.5      35.709
2013    6        8    11  59    3.34   450.6    5.5      35.724
2013    6        8    12   5    3.34   450.6    5.5      35.739
2013    6        8    12  12    3.34   450.6    5.5      35.753
2013    6        8    12  18    3.34   450.6    5.5      35.767
2013    6        8    12  25    3.35   450.6    5.5      35.782
2013    6        8    12  31    3.35   450.6    5.5      35.796
2013    6        8    12  38    3.35   450.6    5.5      35.810
2013    6        8    12  44    3.35   450.6    5.5      35.824
2013    6        8    12  50    3.35   450.6    5.5      35.838
2013    6        8    12  57    3.35   450.6    5.5      35.852
2013    6        8    13   3    3.35   450.6    5.5      35.866
2013    6        8    13  10    3.35   450.6    5.5      35.880
2013    6        8    13  16    3.35   450.6    5.5      35.894
2013    6        8    13  23    3.36   450.6    5.5      35.908
2013    6        8    13  29    3.36   450.7    5.5      35.922
2013    6        8    13  35    3.36   450.7    5.5      35.937
2013    6        8    13  42    3.36   450.7    5.5      35.951
2013    6        8    13  48    3.36   450.7    5.5      35.965
2013    6        8    13  55    3.36   450.7    5.5      35.980
2013    6        8    14   1    3.36   450.7    5.5      35.994
2013    6        8    14   7    3.36   450.7    5.5      36.009
2013    6        8    14  14    3.36   450.7    5.5      36.024
2013    6        8    14  20    3.36   450.7    5.5      36.039
2013    6        8    14  27    3.36   450.7    5.5      36.054
2013    6        8    14  33    3.36   450.7    5.5      36.069
2013    6        8    14  40    3.36   450.7    5.5      36.084
2013    6        8    14  46    3.36   450.7    5.5      36.099
2013    6        8    14  52    3.36   450.8    5.5      36.115
2013    6        8    14  59    3.36   450.8    5.5      36.130
2013    6        8    15   5    3.37   450.8    5.5      36.146
2013    6        8    15  12    3.37   450.8    5.5      36.161
2013    6        8    15  18    3.37   450.8    5.5      36.177
2013    6        8    15  24    3.37   450.8    5.5      36.194
2013    6        8    15  31    3.37   450.8    5.5      36.210
2013    6        8    15  37    3.37   450.8    5.5      36.226
2013    6        8    15  44    3.37   450.8    5.5      36.242
2013    6        8    15  50    3.37   450.8    5.5      36.258
2013    6        8    15  57    3.37   450.9    5.5      36.273
2013    6        8    16   3    3.37   450.9    5.5      36.288
2013    6        8    16   9    3.37   450.9    5.5      36.303
2013    6        8    16  16    3.37   450.9    5.5      36.316
2013    6        8    16  22    3.37   450.9    5.6      36.330
2013    6        8    16  29    3.37   450.9    5.6      36.342
2013    6        8    16  35    3.37   450.9    5.6      36.354
2013    6        8    16  42    3.37   450.9    5.6      36.366
2013    6        8    16  48    3.37   450.9    5.6      36.377
2013    6        8    16  54    3.37   450.9    5.6      36.388
2013    6        8    17   1    3.36   450.9    5.6      36.398
2013    6        8    17   7    3.36   450.9    5.6      36.407
2013    6        8    17  14    3.36   450.9    5.6      36.417
2013    6        8    17  20    3.36   450.9    5.6      36.426
2013    6        8    17  27    3.36   450.9    5.6      36.434
2013    6        8    17  33    3.36   451.0    5.6      36.442
2013    6        8    17  40    3.36   451.0    5.6      36.449
2013    6        8    17  46    3.36   451.0    5.6      36.457
2013    6        8    17  52    3.36   451.0    5.6      36.463
2013    6        8    17  59    3.36   451.0    5.6      36.470
2013    6        8    18   5    3.36   451.0    5.6      36.476
2013    6        8    18  12    3.36   451.0    5.6      36.482
2013    6        8    18  18    3.36   451.0    5.6      36.487
2013    6        8    18  25    3.36   451.0    5.6      36.492
2013    6        8    18  31    3.36   451.0    5.6      36.497
2013    6        8    18  37    3.36   451.0    5.6      36.501
2013    6        8    18  44    3.36   451.0    5.6      36.505
2013    6        8    18  50    3.36   451.0    5.6      36.509
2013    6        8    18  57    3.36   451.0    5.6      36.512
2013    6        8    19   3    3.36   451.0    5.6      36.515
2013    6        8    19  10    3.36   451.0    5.6      36.518
2013    6        8    19  16    3.36   451.0    5.6      36.521
2013    6        8    19  22    3.36   451.0    5.6      36.523
2013    6        8    19  29    3.36   451.0    5.6      36.526
2013    6        8    19  35    3.36   451.0    5.6      36.527
2013    6        8    19  42    3.36   451.0    5.6      36.529
2013    6        8    19  48    3.36   451.0    5.6      36.531
2013    6        8    19  55    3.36   451.0    5.6      36.532
2013    6        8    20   1    3.36   451.0    5.6      36.533
2013    6        8    20   7    3.36   451.0    5.6      36.534
2013    6        8    20  14    3.36   451.0    5.6      36.535
2013    6        8    20  20    3.36   451.0    5.6      36.536
2013    6        8    20  27    3.36   451.0    5.6      36.537
2013    6        8    20  33    3.36   451.0    5.6      36.537
2013    6        8    20  40    3.36   451.0    5.6      36.538
2013    6        8    20  46    3.36   451.0    5.6      36.539
2013    6        8    20  52    3.36   451.0    5.6      36.539
2013    6        8    20  59    3.36   451.0    5.6      36.540
2013    6        8    21   5    3.36   451.0    5.6      36.540
2013    6        8    21  12    3.36   451.0    5.6      36.541
2013    6        8    21  18    3.36   451.0    5.6      36.541
2013    6        8    21  25    3.36   451.0    5.6      36.542
2013    6        8    21  31    3.35   450.9    5.6      36.543
2013    6        8    21  37    3.35   450.9    5.6      36.544
2013    6        8    21  44    3.35   450.9    5.6      36.545
2013    6        8    21  50    3.35   450.9    5.6      36.546
2013    6        8    21  57    3.35   450.9    5.6      36.547
2013    6        8    22   3    3.35   450.9    5.6      36.549
2013    6        8    22   9    3.35   450.9    5.6      36.550
2013    6        8    22  16    3.35   450.9    5.6      36.552
2013    6        8    22  22    3.35   450.9    5.6      36.554
2013    6        8    22  29    3.35   450.9    5.6      36.556
2013    6        8    22  35    3.35   450.9    5.6      36.558
2013    6        8    22  42    3.35   450.9    5.6      36.561
2013    6        8    22  48    3.35   450.9    5.6      36.563
2013    6        8    22  54    3.35   450.9    5.6      36.566
2013    6        8    23   1    3.35   450.9    5.6      36.568
2013    6        8    23   7    3.34   450.9    5.6      36.571
2013    6        8    23  14    3.34   450.9    5.6      36.574
2013    6        8    23  20    3.34   450.9    5.6      36.576
2013    6        8    23  27    3.34   450.8    5.6      36.578
2013    6        8    23  33    3.34   450.8    5.6      36.580
2013    6        8    23  39    3.34   450.8    5.5      36.582
2013    6        8    23  46    3.34   450.8    5.5      36.583
2013    6        8    23  52    3.34   450.8    5.5      36.584
2013    6        8    23  59    3.34   450.8    5.5      36.585
2013    6        9     0   5    3.34   450.8    5.5      36.586
2013    6        9     0  12    3.33   450.8    5.5      36.588
2013    6        9     0  18    3.33   450.7    5.5      36.588
2013    6        9     0  24    3.33   450.7    5.5      36.589
2013    6        9     0  31    3.33   450.7    5.5      36.588
2013    6        9     0  37    3.33   450.7    5.5      36.587
2013    6        9     0  44    3.33   450.7    5.5      36.586
2013    6        9     0  50    3.33   450.7    5.5      36.584
2013    6        9     0  57    3.33   450.6    5.5      36.581
2013    6        9     1   3    3.33   450.6    5.5      36.578
2013    6        9     1   9    3.33   450.6    5.5      36.575
2013    6        9     1  16    3.33   450.6    5.5      36.571
2013    6        9     1  22    3.33   450.6    5.5      36.567
2013    6        9     1  29    3.32   450.5    5.5      36.562
2013    6        9     1  35    3.32   450.5    5.5      36.557
2013    6        9     1  42    3.32   450.5    5.5      36.551
2013    6        9     1  48    3.32   450.5    5.5      36.545
2013    6        9     1  55    3.32   450.4    5.5      36.539
2013    6        9     2   1    3.32   450.4    5.5      36.533
2013    6        9     2   7    3.32   450.4    5.5      36.526
2013    6        9     2  14    3.32   450.4    5.5      36.519
2013    6        9     2  20    3.32   450.3    5.5      36.511
2013    6        9     2  27    3.32   450.3    5.5      36.504
2013    6        9     2  33    3.31   450.3    5.5      36.496
2013    6        9     2  40    3.31   450.3    5.5      36.487
2013    6        9     2  46    3.31   450.2    5.5      36.479
2013    6        9     2  52    3.31   450.2    5.5      36.470
2013    6        9     2  59    3.31   450.2    5.5      36.461
2013    6        9     3   5    3.31   450.2    5.5      36.452
2013    6        9     3  12    3.31   450.1    5.5      36.442
2013    6        9     3  18    3.31   450.1    5.5      36.432
2013    6        9     3  25    3.31   450.1    5.5      36.423
2013    6        9     3  31    3.31   450.0    5.5      36.413
2013    6        9     3  37    3.30   450.0    5.5      36.403
2013    6        9     3  44    3.30   450.0    5.5      36.392
2013    6        9     3  50    3.30   449.9    5.5      36.382
2013    6        9     3  57    3.30   449.9    5.5      36.372
2013    6        9     4   3    3.30   449.9    5.5      36.361
2013    6        9     4  10    3.30   449.8    5.5      36.351
2013    6        9     4  16    3.30   449.8    5.5      36.341
2013    6        9     4  22    3.30   449.8    5.5      36.331
2013    6        9     4  29    3.30   449.8    5.5      36.320
2013    6        9     4  35    3.29   449.7    5.5      36.310
2013    6        9     4  42    3.29   449.7    5.5      36.300
2013    6        9     4  48    3.29   449.6    5.5      36.289
2013    6        9     4  54    3.29   449.6    5.5      36.279
2013    6        9     5   1    3.29   449.6    5.5      36.268
2013    6        9     5   7    3.29   449.5    5.5      36.257
2013    6        9     5  14    3.29   449.5    5.5      36.247
2013    6        9     5  20    3.29   449.5    5.5      36.236
2013    6        9     5  27    3.29   449.4    5.5      36.225
2013    6        9     5  33    3.28   449.4    5.5      36.213
2013    6        9     5  39    3.28   449.3    5.5      36.202
2013    6        9     5  46    3.28   449.3    5.5      36.191
2013    6        9     5  52    3.28   449.3    5.5      36.179
2013    6        9     5  59    3.28   449.2    5.5      36.168
2013    6        9     6   5    3.28   449.2    5.5      36.156
2013    6        9     6  12    3.28   449.1    5.5      36.145
2013    6        9     6  18    3.28   449.1    5.5      36.133
2013    6        9     6  24    3.27   449.1    5.5      36.121
2013    6        9     6  31    3.27   449.0    5.5      36.109
2013    6        9     6  37    3.27   449.0    5.5      36.097
2013    6        9     6  44    3.27   448.9    5.5      36.085
2013    6        9     6  50    3.27   448.9    5.5      36.073
2013    6        9     6  57    3.27   448.8    5.5      36.061
2013    6        9     7   3    3.27   448.8    5.5      36.048
2013    6        9     7   9    3.26   448.7    5.5      36.036
2013    6        9     7  16    3.26   448.7    5.5      36.022
2013    6        9     7  22    3.26   448.6    5.5      36.009
2013    6        9     7  29    3.26   448.6    5.5      35.995
2013    6        9     7  35    3.26   448.5    5.5      35.981
2013    6        9     7  42    3.26   448.5    5.5      35.967
2013    6        9     7  48    3.26   448.4    5.5      35.952
2013    6        9     7  54    3.25   448.3    5.5      35.937
2013    6        9     8   1    3.25   448.3    5.5      35.921
2013    6        9     8   7    3.25   448.2    5.5      35.905
2013    6        9     8  14    3.25   448.2    5.5      35.889
2013    6        9     8  20    3.25   448.1    5.5      35.872
2013    6        9     8  27    3.25   448.0    5.4      35.855
2013    6        9     8  33    3.25   448.0    5.4      35.838
2013    6        9     8  39    3.24   447.9    5.4      35.820
2013    6        9     8  46    3.24   447.9    5.4      35.803
2013    6        9     8  52    3.24   447.8    5.4      35.784
2013    6        9     8  59    3.24   447.7    5.4      35.766
2013    6        9     9   5    3.24   447.7    5.4      35.747
2013    6        9     9  12    3.24   447.6    5.4      35.728
2013    6        9     9  18    3.23   447.5    5.4      35.709
2013    6        9     9  25    3.23   447.5    5.4      35.690
2013    6        9     9  31    3.23   447.4    5.4      35.670
2013    6        9     9  37    3.23   447.3    5.4      35.650
2013    6        9     9  44    3.23   447.3    5.4      35.630
2013    6        9     9  50    3.23   447.2    5.4      35.610
2013    6        9     9  57    3.23   447.1    5.4      35.589
2013    6        9    10   3    3.22   447.0    5.4      35.568
2013    6        9    10  10    3.22   447.0    5.4      35.548
2013    6        9    10  16    3.22   446.9    5.4      35.526
2013    6        9    10  22    3.22   446.8    5.4      35.505
2013    6        9    10  29    3.22   446.7    5.4      35.484
2013    6        9    10  35    3.22   446.7    5.4      35.463
2013    6        9    10  42    3.21   446.6    5.4      35.441
2013    6        9    10  48    3.21   446.5    5.4      35.420
2013    6        9    10  55    3.21   446.4    5.4      35.398
2013    6        9    11   1    3.21   446.3    5.4      35.377
2013    6        9    11   7    3.21   446.3    5.4      35.355
2013    6        9    11  14    3.21   446.2    5.4      35.334
2013    6        9    11  20    3.21   446.1    5.4      35.313
2013    6        9    11  27    3.20   446.0    5.4      35.292
2013    6        9    11  33    3.20   445.9    5.4      35.271
2013    6        9    11  40    3.20   445.8    5.4      35.251
2013    6        9    11  46    3.20   445.7    5.4      35.230
2013    6        9    11  52    3.20   445.7    5.4      35.210
2013    6        9    11  59    3.20   445.6    5.4      35.190
2013    6        9    12   5    3.20   445.5    5.4      35.170
2013    6        9    12  12    3.20   445.4    5.4      35.149
2013    6        9    12  18    3.19   445.3    5.4      35.129
2013    6        9    12  24    3.19   445.2    5.4      35.109
2013    6        9    12  31    3.19   445.1    5.4      35.089
2013    6        9    12  37    3.19   445.0    5.4      35.069
2013    6        9    12  44    3.19   445.0    5.4      35.049
2013    6        9    12  50    3.19   444.9    5.4      35.029
2013    6        9    12  57    3.19   444.8    5.4      35.009
2013    6        9    13   3    3.19   444.7    5.4      34.989
2013    6        9    13   9    3.18   444.6    5.4      34.968
2013    6        9    13  16    3.18   444.5    5.4      34.948
2013    6        9    13  22    3.18   444.4    5.4      34.927
2013    6        9    13  29    3.18   444.3    5.4      34.906
2013    6        9    13  35    3.18   444.2    5.4      34.885
2013    6        9    13  42    3.18   444.1    5.4      34.864
2013    6        9    13  48    3.18   444.1    5.4      34.843
2013    6        9    13  54    3.18   444.0    5.4      34.821
2013    6        9    14   1    3.17   443.9    5.4      34.799
2013    6        9    14   7    3.17   443.8    5.4      34.778
2013    6        9    14  14    3.17   443.7    5.4      34.756
2013    6        9    14  20    3.17   443.6    5.4      34.734
2013    6        9    14  27    3.17   443.5    5.4      34.711
2013    6        9    14  33    3.17   443.4    5.4      34.689
2013    6        9    14  39    3.17   443.3    5.4      34.666
2013    6        9    14  46    3.17   443.2    5.4      34.644
2013    6        9    14  52    3.16   443.1    5.4      34.621
2013    6        9    14  59    3.16   443.0    5.4      34.598
2013    6        9    15   5    3.16   442.9    5.4      34.575
2013    6        9    15  12    3.16   442.8    5.4      34.551
2013    6        9    15  18    3.16   442.7    5.4      34.528
2013    6        9    15  24    3.16   442.6    5.4      34.505
2013    6        9    15  31    3.16   442.5    5.4      34.482
2013    6        9    15  37    3.16   442.4    5.4      34.458
2013    6        9    15  44    3.15   442.2    5.4      34.435
2013    6        9    15  50    3.15   442.1    5.4      34.412
2013    6        9    15  57    3.15   442.0    5.4      34.389
2013    6        9    16   3    3.15   441.9    5.4      34.366
2013    6        9    16   9    3.15   441.8    5.4      34.343
2013    6        9    16  16    3.15   441.7    5.4      34.320
2013    6        9    16  22    3.15   441.6    5.4      34.298
2013    6        9    16  29    3.15   441.5    5.4      34.276
2013    6        9    16  35    3.15   441.4    5.4      34.255
2013    6        9    16  42    3.14   441.2    5.4      34.234
2013    6        9    16  48    3.14   441.1    5.4      34.213
2013    6        9    16  54    3.14   441.0    5.4      34.193
2013    6        9    17   1    3.14   440.9    5.4      34.172
2013    6        9    17   7    3.14   440.8    5.4      34.152
2013    6        9    17  14    3.14   440.7    5.4      34.132
2013    6        9    17  20    3.14   440.6    5.4      34.112
2013    6        9    17  27    3.14   440.5    5.4      34.092
2013    6        9    17  33    3.14   440.3    5.4      34.073
2013    6        9    17  40    3.14   440.2    5.4      34.053
2013    6        9    17  46    3.14   440.1    5.4      34.033
2013    6        9    17  52    3.13   440.0    5.4      34.012
2013    6        9    17  59    3.13   439.9    5.4      33.992
2013    6        9    18   5    3.13   439.7    5.4      33.971
2013    6        9    18  12    3.13   439.6    5.4      33.950
2013    6        9    18  18    3.13   439.5    5.4      33.929
2013    6        9    18  24    3.13   439.4    5.4      33.908
2013    6        9    18  31    3.13   439.3    5.4      33.887
2013    6        9    18  37    3.13   439.1    5.4      33.865
2013    6        9    18  44    3.13   439.0    5.4      33.844
2013    6        9    18  50    3.13   438.9    5.4      33.822
2013    6        9    18  57    3.13   438.8    5.4      33.801
2013    6        9    19   3    3.13   438.6    5.4      33.779
2013    6        9    19   9    3.13   438.5    5.4      33.758
2013    6        9    19  16    3.12   438.4    5.4      33.736
2013    6        9    19  22    3.12   438.3    5.4      33.715
2013    6        9    19  29    3.12   438.1    5.4      33.693
2013    6        9    19  35    3.12   438.0    5.4      33.672
2013    6        9    19  42    3.12   437.9    5.4      33.651
2013    6        9    19  48    3.12   437.7    5.4      33.630
2013    6        9    19  54    3.12   437.6    5.4      33.608
2013    6        9    20   1    3.12   437.5    5.4      33.587
2013    6        9    20   7    3.12   437.3    5.4      33.567
2013    6        9    20  14    3.12   437.2    5.4      33.546
2013    6        9    20  20    3.12   437.1    5.4      33.525
2013    6        9    20  26    3.12   437.0    5.4      33.504
2013    6        9    20  33    3.12   436.8    5.4      33.483
2013    6        9    20  39    3.12   436.7    5.4      33.462
2013    6        9    20  46    3.12   436.6    5.4      33.442
2013    6        9    20  52    3.12   436.4    5.4      33.421
2013    6        9    20  59    3.12   436.3    5.4      33.400
2013    6        9    21   5    3.12   436.2    5.4      33.379
2013    6        9    21  11    3.12   436.1    5.4      33.358
2013    6        9    21  18    3.12   435.9    5.4      33.337
2013    6        9    21  24    3.11   435.8    5.4      33.316
2013    6        9    21  31    3.11   435.7    5.4      33.294
2013    6        9    21  37    3.11   435.5    5.4      33.273
2013    6        9    21  44    3.11   435.4    5.4      33.252
2013    6        9    21  50    3.11   435.3    5.4      33.231
2013    6        9    21  56    3.11   435.1    5.4      33.209
2013    6        9    22   3    3.11   435.0    5.4      33.188
2013    6        9    22   9    3.11   434.9    5.4      33.167
2013    6        9    22  16    3.11   434.7    5.4      33.145
2013    6        9    22  22    3.11   434.6    5.4      33.124
2013    6        9    22  29    3.11   434.5    5.4      33.103
2013    6        9    22  35    3.11   434.3    5.4      33.082
2013    6        9    22  41    3.11   434.2    5.4      33.061
2013    6        9    22  48    3.11   434.1    5.4      33.040
2013    6        9    22  54    3.11   433.9    5.4      33.020
2013    6        9    23   1    3.11   433.8    5.4      32.999
2013    6        9    23   7    3.11   433.7    5.4      32.979
2013    6        9    23  14    3.11   433.5    5.4      32.960
2013    6        9    23  20    3.11   433.4    5.4      32.940
2013    6        9    23  27    3.11   433.3    5.4      32.921
2013    6        9    23  33    3.11   433.1    5.4      32.903
2013    6        9    23  39    3.11   433.0    5.4      32.885
2013    6        9    23  46    3.11   432.9    5.4      32.868
2013    6        9    23  52    3.11   432.7    5.4      32.851
2013    6        9    23  59    3.11   432.6    5.4      32.835
2013    6       10     0   5    3.11   432.5    5.4      32.820
