year    month   day   hour  minute  B_enl V_enl   n_enl       T_enl
[year] [month] [day] [hour][minute] [nT]  [km/s]  [cm-3]      [kK]
2013    5       26     0   1    4.09   498.1    4.4      40.555
2013    5       26     0   7    4.09   498.0    4.4      40.530
2013    5       26     0  13    4.09   497.9    4.4      40.504
2013    5       26     0  19    4.08   497.9    4.4      40.478
2013    5       26     0  25    4.08   497.8    4.4      40.452
2013    5       26     0  31    4.08   497.7    4.4      40.426
2013    5       26     0  37    4.08   497.6    4.4      40.399
2013    5       26     0  43    4.07   497.6    4.4      40.372
2013    5       26     0  49    4.07   497.5    4.4      40.344
2013    5       26     0  55    4.07   497.4    4.4      40.316
2013    5       26     1   1    4.07   497.3    4.4      40.288
2013    5       26     1   6    4.06   497.3    4.4      40.260
2013    5       26     1  12    4.06   497.2    4.4      40.231
2013    5       26     1  18    4.06   497.1    4.4      40.203
2013    5       26     1  24    4.06   497.0    4.4      40.173
2013    5       26     1  30    4.05   496.9    4.4      40.144
2013    5       26     1  36    4.05   496.9    4.4      40.114
2013    5       26     1  42    4.05   496.8    4.4      40.084
2013    5       26     1  48    4.05   496.7    4.4      40.054
2013    5       26     1  54    4.04   496.6    4.4      40.024
2013    5       26     2   0    4.04   496.5    4.4      39.993
2013    5       26     2   6    4.04   496.5    4.4      39.962
2013    5       26     2  12    4.03   496.4    4.4      39.931
2013    5       26     2  18    4.03   496.3    4.3      39.900
2013    5       26     2  24    4.03   496.2    4.3      39.869
2013    5       26     2  30    4.03   496.1    4.3      39.838
2013    5       26     2  36    4.02   496.0    4.3      39.807
2013    5       26     2  42    4.02   495.9    4.3      39.776
2013    5       26     2  47    4.02   495.8    4.3      39.745
2013    5       26     2  53    4.02   495.7    4.3      39.714
2013    5       26     2  59    4.01   495.6    4.3      39.683
2013    5       26     3   5    4.01   495.5    4.3      39.652
2013    5       26     3  11    4.01   495.5    4.3      39.622
2013    5       26     3  17    4.01   495.4    4.3      39.591
2013    5       26     3  23    4.00   495.3    4.3      39.561
2013    5       26     3  29    4.00   495.2    4.3      39.531
2013    5       26     3  35    4.00   495.1    4.3      39.501
2013    5       26     3  41    4.00   495.0    4.3      39.472
2013    5       26     3  47    4.00   494.9    4.3      39.443
2013    5       26     3  53    3.99   494.8    4.3      39.414
2013    5       26     3  59    3.99   494.7    4.3      39.386
2013    5       26     4   5    3.99   494.6    4.3      39.357
2013    5       26     4  11    3.99   494.5    4.3      39.329
2013    5       26     4  17    3.98   494.4    4.3      39.302
2013    5       26     4  23    3.98   494.3    4.3      39.274
2013    5       26     4  29    3.98   494.2    4.3      39.247
2013    5       26     4  35    3.98   494.1    4.3      39.220
2013    5       26     4  41    3.97   494.0    4.3      39.193
2013    5       26     4  46    3.97   493.9    4.3      39.166
2013    5       26     4  52    3.97   493.8    4.3      39.139
2013    5       26     4  58    3.97   493.7    4.3      39.113
2013    5       26     5   4    3.96   493.6    4.3      39.086
2013    5       26     5  10    3.96   493.5    4.3      39.059
2013    5       26     5  16    3.96   493.4    4.3      39.033
2013    5       26     5  22    3.96   493.2    4.3      39.006
2013    5       26     5  28    3.95   493.1    4.3      38.980
2013    5       26     5  34    3.95   493.0    4.3      38.954
2013    5       26     5  40    3.95   492.9    4.3      38.927
2013    5       26     5  46    3.95   492.8    4.3      38.901
2013    5       26     5  52    3.95   492.7    4.3      38.874
2013    5       26     5  58    3.94   492.6    4.3      38.848
2013    5       26     6   4    3.94   492.5    4.3      38.822
2013    5       26     6  10    3.94   492.4    4.3      38.795
2013    5       26     6  16    3.94   492.3    4.3      38.769
2013    5       26     6  22    3.93   492.2    4.3      38.742
2013    5       26     6  28    3.93   492.1    4.3      38.716
2013    5       26     6  34    3.93   491.9    4.3      38.689
2013    5       26     6  39    3.93   491.8    4.3      38.662
2013    5       26     6  45    3.92   491.7    4.3      38.635
2013    5       26     6  51    3.92   491.6    4.3      38.607
2013    5       26     6  57    3.92   491.5    4.3      38.579
2013    5       26     7   3    3.92   491.4    4.3      38.551
2013    5       26     7   9    3.92   491.3    4.3      38.523
2013    5       26     7  15    3.91   491.2    4.3      38.494
2013    5       26     7  21    3.91   491.1    4.3      38.465
2013    5       26     7  27    3.91   490.9    4.3      38.436
2013    5       26     7  33    3.91   490.8    4.3      38.406
2013    5       26     7  39    3.90   490.7    4.3      38.376
2013    5       26     7  45    3.90   490.6    4.3      38.346
2013    5       26     7  51    3.90   490.5    4.3      38.316
2013    5       26     7  57    3.90   490.4    4.3      38.285
2013    5       26     8   3    3.90   490.3    4.3      38.253
2013    5       26     8   9    3.89   490.1    4.3      38.222
2013    5       26     8  15    3.89   490.0    4.3      38.190
2013    5       26     8  20    3.89   489.9    4.3      38.158
2013    5       26     8  26    3.89   489.8    4.3      38.126
2013    5       26     8  32    3.88   489.7    4.3      38.093
2013    5       26     8  38    3.88   489.6    4.3      38.061
2013    5       26     8  44    3.88   489.4    4.3      38.028
2013    5       26     8  50    3.88   489.3    4.3      37.995
2013    5       26     8  56    3.88   489.2    4.2      37.961
2013    5       26     9   2    3.87   489.1    4.2      37.927
2013    5       26     9   8    3.87   488.9    4.2      37.893
2013    5       26     9  14    3.87   488.8    4.2      37.859
2013    5       26     9  20    3.87   488.7    4.2      37.825
2013    5       26     9  26    3.86   488.6    4.2      37.790
2013    5       26     9  32    3.86   488.5    4.2      37.755
2013    5       26     9  38    3.86   488.3    4.2      37.720
2013    5       26     9  44    3.86   488.2    4.2      37.685
2013    5       26     9  50    3.86   488.1    4.2      37.650
2013    5       26     9  56    3.85   488.0    4.2      37.614
2013    5       26    10   2    3.85   487.8    4.2      37.578
2013    5       26    10   7    3.85   487.7    4.2      37.542
2013    5       26    10  13    3.85   487.6    4.2      37.507
2013    5       26    10  19    3.84   487.4    4.2      37.470
2013    5       26    10  25    3.84   487.3    4.2      37.434
2013    5       26    10  31    3.84   487.2    4.2      37.398
2013    5       26    10  37    3.84   487.0    4.2      37.362
2013    5       26    10  43    3.84   486.9    4.2      37.326
2013    5       26    10  49    3.83   486.8    4.2      37.290
2013    5       26    10  55    3.83   486.6    4.2      37.254
2013    5       26    11   1    3.83   486.5    4.2      37.218
2013    5       26    11   7    3.83   486.4    4.2      37.182
2013    5       26    11  13    3.83   486.2    4.2      37.147
2013    5       26    11  19    3.82   486.1    4.2      37.111
2013    5       26    11  25    3.82   486.0    4.2      37.076
2013    5       26    11  31    3.82   485.8    4.2      37.040
2013    5       26    11  37    3.82   485.7    4.2      37.005
2013    5       26    11  43    3.81   485.6    4.2      36.970
2013    5       26    11  49    3.81   485.4    4.2      36.935
2013    5       26    11  55    3.81   485.3    4.2      36.900
2013    5       26    12   1    3.81   485.2    4.2      36.865
2013    5       26    12   6    3.81   485.0    4.2      36.830
2013    5       26    12  12    3.80   484.9    4.2      36.796
2013    5       26    12  18    3.80   484.7    4.2      36.761
2013    5       26    12  24    3.80   484.6    4.2      36.726
2013    5       26    12  30    3.80   484.5    4.2      36.692
2013    5       26    12  36    3.80   484.3    4.2      36.657
2013    5       26    12  42    3.79   484.2    4.2      36.623
2013    5       26    12  48    3.79   484.0    4.2      36.588
2013    5       26    12  54    3.79   483.9    4.2      36.554
2013    5       26    13   0    3.79   483.7    4.2      36.519
2013    5       26    13   6    3.78   483.6    4.2      36.485
2013    5       26    13  12    3.78   483.4    4.2      36.451
2013    5       26    13  18    3.78   483.3    4.2      36.417
2013    5       26    13  24    3.78   483.1    4.2      36.383
2013    5       26    13  30    3.78   483.0    4.2      36.350
2013    5       26    13  36    3.77   482.8    4.2      36.317
2013    5       26    13  42    3.77   482.7    4.2      36.283
2013    5       26    13  48    3.77   482.5    4.2      36.251
2013    5       26    13  54    3.77   482.4    4.2      36.218
2013    5       26    13  59    3.77   482.2    4.2      36.185
2013    5       26    14   5    3.76   482.1    4.2      36.153
2013    5       26    14  11    3.76   481.9    4.2      36.120
2013    5       26    14  17    3.76   481.7    4.2      36.088
2013    5       26    14  23    3.76   481.6    4.2      36.056
2013    5       26    14  29    3.76   481.4    4.2      36.024
2013    5       26    14  35    3.75   481.3    4.2      35.992
2013    5       26    14  41    3.75   481.1    4.2      35.960
2013    5       26    14  47    3.75   481.0    4.2      35.929
2013    5       26    14  53    3.75   480.8    4.2      35.897
2013    5       26    14  59    3.75   480.7    4.2      35.866
2013    5       26    15   5    3.75   480.5    4.2      35.835
2013    5       26    15  11    3.74   480.3    4.2      35.804
2013    5       26    15  17    3.74   480.2    4.2      35.773
2013    5       26    15  23    3.74   480.0    4.2      35.743
2013    5       26    15  29    3.74   479.9    4.2      35.713
2013    5       26    15  35    3.74   479.7    4.2      35.683
2013    5       26    15  40    3.74   479.6    4.2      35.654
2013    5       26    15  46    3.73   479.4    4.2      35.625
2013    5       26    15  52    3.73   479.3    4.2      35.596
2013    5       26    15  58    3.73   479.1    4.2      35.568
2013    5       26    16   4    3.73   478.9    4.2      35.539
2013    5       26    16  10    3.73   478.8    4.2      35.510
2013    5       26    16  16    3.73   478.6    4.2      35.480
2013    5       26    16  22    3.72   478.5    4.2      35.450
2013    5       26    16  28    3.72   478.3    4.2      35.420
2013    5       26    16  34    3.72   478.2    4.2      35.390
2013    5       26    16  40    3.72   478.0    4.2      35.359
2013    5       26    16  46    3.72   477.9    4.2      35.328
2013    5       26    16  52    3.72   477.7    4.2      35.296
2013    5       26    16  58    3.72   477.5    4.2      35.264
2013    5       26    17   4    3.71   477.4    4.2      35.231
2013    5       26    17  10    3.71   477.2    4.2      35.198
2013    5       26    17  16    3.71   477.1    4.2      35.165
2013    5       26    17  21    3.71   476.9    4.2      35.131
2013    5       26    17  27    3.71   476.8    4.2      35.097
2013    5       26    17  33    3.71   476.6    4.2      35.063
2013    5       26    17  39    3.70   476.5    4.2      35.028
2013    5       26    17  45    3.70   476.3    4.2      34.993
2013    5       26    17  51    3.70   476.1    4.2      34.958
2013    5       26    17  57    3.70   476.0    4.2      34.922
2013    5       26    18   3    3.70   475.8    4.2      34.886
2013    5       26    18   9    3.70   475.7    4.2      34.850
2013    5       26    18  15    3.69   475.5    4.2      34.813
2013    5       26    18  21    3.69   475.3    4.2      34.776
2013    5       26    18  27    3.69   475.2    4.2      34.739
2013    5       26    18  33    3.69   475.0    4.2      34.702
2013    5       26    18  39    3.69   474.9    4.2      34.664
2013    5       26    18  45    3.69   474.7    4.2      34.626
2013    5       26    18  51    3.68   474.5    4.2      34.588
2013    5       26    18  57    3.68   474.4    4.2      34.550
2013    5       26    19   3    3.68   474.2    4.2      34.512
2013    5       26    19   9    3.68   474.0    4.2      34.474
2013    5       26    19  15    3.68   473.9    4.2      34.435
2013    5       26    19  20    3.68   473.7    4.2      34.397
2013    5       26    19  26    3.67   473.5    4.2      34.358
2013    5       26    19  32    3.67   473.4    4.2      34.320
2013    5       26    19  38    3.67   473.2    4.2      34.281
2013    5       26    19  44    3.67   473.0    4.2      34.243
2013    5       26    19  50    3.67   472.9    4.1      34.204
2013    5       26    19  56    3.67   472.7    4.1      34.166
2013    5       26    20   2    3.66   472.5    4.1      34.127
2013    5       26    20   8    3.66   472.4    4.1      34.089
2013    5       26    20  14    3.66   472.2    4.1      34.051
2013    5       26    20  20    3.66   472.0    4.1      34.013
2013    5       26    20  26    3.66   471.8    4.1      33.975
2013    5       26    20  32    3.66   471.7    4.1      33.938
2013    5       26    20  38    3.65   471.5    4.1      33.900
2013    5       26    20  44    3.65   471.3    4.1      33.863
2013    5       26    20  50    3.65   471.1    4.1      33.826
2013    5       26    20  56    3.65   471.0    4.1      33.790
2013    5       26    21   2    3.65   470.8    4.1      33.753
2013    5       26    21   8    3.65   470.6    4.1      33.717
2013    5       26    21  13    3.65   470.4    4.1      33.682
2013    5       26    21  19    3.64   470.3    4.1      33.647
2013    5       26    21  25    3.64   470.1    4.1      33.612
2013    5       26    21  31    3.64   469.9    4.1      33.577
2013    5       26    21  37    3.64   469.7    4.1      33.543
2013    5       26    21  43    3.64   469.5    4.1      33.509
2013    5       26    21  49    3.64   469.4    4.1      33.475
2013    5       26    21  55    3.64   469.2    4.1      33.442
2013    5       26    22   1    3.63   469.0    4.1      33.410
2013    5       26    22   7    3.63   468.8    4.1      33.377
2013    5       26    22  13    3.63   468.6    4.1      33.346
2013    5       26    22  19    3.63   468.5    4.1      33.315
2013    5       26    22  25    3.63   468.3    4.1      33.284
2013    5       26    22  31    3.63   468.1    4.1      33.254
2013    5       26    22  37    3.63   467.9    4.1      33.224
2013    5       26    22  43    3.63   467.7    4.1      33.195
2013    5       26    22  49    3.62   467.5    4.1      33.167
2013    5       26    22  54    3.62   467.4    4.1      33.140
2013    5       26    23   0    3.62   467.2    4.1      33.113
2013    5       26    23   6    3.62   467.0    4.1      33.088
2013    5       26    23  12    3.62   466.8    4.2      33.062
2013    5       26    23  18    3.62   466.6    4.2      33.038
2013    5       26    23  24    3.62   466.5    4.2      33.013
2013    5       26    23  30    3.62   466.3    4.2      32.989
2013    5       26    23  36    3.62   466.1    4.2      32.965
2013    5       26    23  42    3.61   465.9    4.2      32.940
2013    5       26    23  48    3.61   465.7    4.2      32.916
2013    5       26    23  54    3.61   465.6    4.2      32.892
2013    5       27     0   0    3.61   465.4    4.2      32.868
2013    5       27     0   6    3.61   465.2    4.2      32.845
2013    5       27     0  12    3.61   465.0    4.2      32.821
2013    5       27     0  18    3.61   464.8    4.2      32.797
2013    5       27     0  24    3.61   464.7    4.2      32.773
2013    5       27     0  30    3.61   464.5    4.2      32.748
2013    5       27     0  36    3.61   464.3    4.2      32.724
2013    5       27     0  41    3.61   464.1    4.2      32.700
2013    5       27     0  47    3.60   464.0    4.2      32.676
2013    5       27     0  53    3.60   463.8    4.2      32.651
2013    5       27     0  59    3.60   463.6    4.2      32.627
2013    5       27     1   5    3.60   463.4    4.2      32.602
2013    5       27     1  11    3.60   463.2    4.2      32.577
2013    5       27     1  17    3.60   463.1    4.2      32.552
2013    5       27     1  23    3.60   462.9    4.2      32.527
2013    5       27     1  29    3.60   462.7    4.2      32.501
2013    5       27     1  35    3.60   462.5    4.2      32.476
2013    5       27     1  41    3.60   462.4    4.2      32.450
2013    5       27     1  47    3.59   462.2    4.2      32.424
2013    5       27     1  53    3.59   462.0    4.2      32.397
2013    5       27     1  59    3.59   461.8    4.2      32.370
2013    5       27     2   5    3.59   461.6    4.2      32.343
2013    5       27     2  11    3.59   461.4    4.2      32.316
2013    5       27     2  17    3.59   461.2    4.2      32.289
2013    5       27     2  23    3.59   461.1    4.2      32.261
2013    5       27     2  28    3.59   460.9    4.2      32.233
2013    5       27     2  34    3.59   460.7    4.2      32.206
2013    5       27     2  40    3.59   460.5    4.2      32.178
2013    5       27     2  46    3.58   460.3    4.2      32.150
2013    5       27     2  52    3.58   460.1    4.2      32.122
2013    5       27     2  58    3.58   459.9    4.2      32.093
2013    5       27     3   4    3.58   459.7    4.2      32.065
2013    5       27     3  10    3.58   459.5    4.2      32.037
2013    5       27     3  16    3.58   459.4    4.2      32.009
2013    5       27     3  22    3.58   459.2    4.2      31.980
2013    5       27     3  28    3.58   459.0    4.2      31.952
2013    5       27     3  34    3.58   458.8    4.2      31.923
2013    5       27     3  40    3.58   458.6    4.2      31.895
2013    5       27     3  46    3.58   458.4    4.2      31.866
2013    5       27     3  52    3.57   458.2    4.2      31.838
2013    5       27     3  58    3.57   458.0    4.2      31.809
2013    5       27     4   4    3.57   457.8    4.2      31.780
2013    5       27     4   9    3.57   457.6    4.2      31.751
2013    5       27     4  15    3.57   457.4    4.2      31.722
2013    5       27     4  21    3.57   457.2    4.2      31.693
2013    5       27     4  27    3.57   457.0    4.2      31.663
2013    5       27     4  33    3.57   456.8    4.2      31.634
2013    5       27     4  39    3.57   456.7    4.2      31.604
2013    5       27     4  45    3.57   456.5    4.2      31.574
2013    5       27     4  51    3.57   456.3    4.2      31.544
2013    5       27     4  57    3.57   456.1    4.2      31.514
2013    5       27     5   3    3.56   455.9    4.2      31.484
2013    5       27     5   9    3.56   455.7    4.2      31.454
2013    5       27     5  15    3.56   455.5    4.2      31.424
2013    5       27     5  21    3.56   455.3    4.2      31.394
2013    5       27     5  27    3.56   455.1    4.2      31.364
2013    5       27     5  33    3.56   454.9    4.2      31.334
2013    5       27     5  38    3.56   454.7    4.2      31.304
2013    5       27     5  44    3.56   454.5    4.2      31.274
2013    5       27     5  50    3.56   454.3    4.2      31.245
2013    5       27     5  56    3.56   454.1    4.2      31.216
2013    5       27     6   2    3.56   453.9    4.2      31.186
2013    5       27     6   8    3.56   453.7    4.2      31.157
2013    5       27     6  14    3.56   453.5    4.2      31.129
2013    5       27     6  20    3.56   453.3    4.2      31.100
2013    5       27     6  26    3.56   453.1    4.2      31.072
2013    5       27     6  32    3.56   452.9    4.2      31.044
2013    5       27     6  38    3.55   452.7    4.2      31.017
2013    5       27     6  44    3.55   452.5    4.2      30.989
2013    5       27     6  50    3.55   452.3    4.2      30.962
2013    5       27     6  56    3.55   452.1    4.2      30.936
2013    5       27     7   2    3.55   451.9    4.2      30.909
2013    5       27     7   7    3.55   451.7    4.2      30.883
2013    5       27     7  13    3.55   451.5    4.2      30.858
2013    5       27     7  19    3.55   451.3    4.2      30.832
2013    5       27     7  25    3.55   451.1    4.2      30.807
2013    5       27     7  31    3.55   450.9    4.2      30.782
2013    5       27     7  37    3.55   450.7    4.2      30.758
2013    5       27     7  43    3.55   450.5    4.2      30.733
2013    5       27     7  49    3.55   450.3    4.2      30.709
2013    5       27     7  55    3.55   450.1    4.2      30.686
2013    5       27     8   1    3.55   449.9    4.2      30.662
2013    5       27     8   7    3.55   449.7    4.2      30.639
2013    5       27     8  13    3.55   449.5    4.2      30.617
2013    5       27     8  19    3.55   449.3    4.3      30.594
2013    5       27     8  25    3.55   449.1    4.3      30.572
2013    5       27     8  31    3.55   448.9    4.3      30.550
2013    5       27     8  37    3.55   448.7    4.3      30.528
2013    5       27     8  43    3.55   448.5    4.3      30.506
2013    5       27     8  49    3.55   448.3    4.3      30.485
2013    5       27     8  55    3.55   448.0    4.3      30.464
2013    5       27     9   1    3.55   447.8    4.3      30.443
2013    5       27     9   6    3.55   447.6    4.3      30.422
2013    5       27     9  12    3.55   447.4    4.3      30.401
2013    5       27     9  18    3.55   447.2    4.3      30.381
2013    5       27     9  24    3.55   447.0    4.3      30.361
2013    5       27     9  30    3.55   446.8    4.3      30.341
2013    5       27     9  36    3.55   446.6    4.3      30.322
2013    5       27     9  42    3.55   446.4    4.3      30.302
2013    5       27     9  48    3.55   446.2    4.3      30.284
2013    5       27     9  54    3.55   445.9    4.3      30.265
2013    5       27    10   0    3.55   445.7    4.3      30.247
2013    5       27    10   6    3.55   445.5    4.3      30.230
2013    5       27    10  12    3.55   445.3    4.3      30.213
2013    5       27    10  18    3.55   445.1    4.3      30.196
2013    5       27    10  24    3.55   444.9    4.3      30.180
2013    5       27    10  30    3.55   444.7    4.3      30.164
2013    5       27    10  36    3.55   444.5    4.3      30.149
2013    5       27    10  42    3.56   444.3    4.3      30.134
2013    5       27    10  48    3.56   444.0    4.3      30.120
2013    5       27    10  54    3.56   443.8    4.3      30.106
2013    5       27    10  59    3.56   443.6    4.3      30.093
2013    5       27    11   5    3.56   443.4    4.4      30.080
2013    5       27    11  11    3.56   443.2    4.4      30.067
2013    5       27    11  17    3.56   443.0    4.4      30.055
2013    5       27    11  23    3.56   442.8    4.4      30.043
2013    5       27    11  29    3.56   442.6    4.4      30.031
2013    5       27    11  35    3.56   442.4    4.4      30.020
2013    5       27    11  41    3.56   442.1    4.4      30.008
2013    5       27    11  47    3.56   441.9    4.4      29.997
2013    5       27    11  53    3.56   441.7    4.4      29.987
2013    5       27    11  59    3.57   441.5    4.4      29.976
2013    5       27    12   5    3.57   441.3    4.4      29.965
2013    5       27    12  11    3.57   441.1    4.4      29.955
2013    5       27    12  17    3.57   440.9    4.4      29.945
2013    5       27    12  23    3.57   440.7    4.4      29.935
2013    5       27    12  29    3.57   440.5    4.4      29.925
2013    5       27    12  35    3.57   440.3    4.4      29.915
2013    5       27    12  41    3.57   440.1    4.4      29.905
2013    5       27    12  47    3.58   439.9    4.4      29.895
2013    5       27    12  52    3.58   439.7    4.4      29.886
2013    5       27    12  58    3.58   439.5    4.5      29.876
2013    5       27    13   4    3.58   439.3    4.5      29.867
2013    5       27    13  10    3.58   439.1    4.5      29.858
2013    5       27    13  16    3.58   438.9    4.5      29.849
2013    5       27    13  22    3.58   438.7    4.5      29.840
2013    5       27    13  28    3.59   438.5    4.5      29.832
2013    5       27    13  34    3.59   438.3    4.5      29.824
2013    5       27    13  40    3.59   438.1    4.5      29.816
2013    5       27    13  46    3.59   437.9    4.5      29.808
2013    5       27    13  52    3.59   437.8    4.5      29.799
2013    5       27    13  58    3.59   437.6    4.5      29.791
2013    5       27    14   4    3.60   437.4    4.5      29.783
2013    5       27    14  10    3.60   437.2    4.5      29.774
2013    5       27    14  16    3.60   437.0    4.5      29.765
2013    5       27    14  22    3.60   436.8    4.5      29.756
2013    5       27    14  28    3.60   436.6    4.5      29.747
2013    5       27    14  33    3.60   436.4    4.5      29.737
2013    5       27    14  39    3.61   436.2    4.5      29.728
2013    5       27    14  45    3.61   436.1    4.5      29.718
2013    5       27    14  51    3.61   435.9    4.5      29.708
2013    5       27    14  57    3.61   435.7    4.6      29.698
2013    5       27    15   3    3.61   435.5    4.6      29.688
2013    5       27    15   9    3.61   435.3    4.6      29.678
2013    5       27    15  15    3.62   435.1    4.6      29.668
2013    5       27    15  21    3.62   434.9    4.6      29.657
2013    5       27    15  27    3.62   434.8    4.6      29.647
2013    5       27    15  33    3.62   434.6    4.6      29.636
2013    5       27    15  39    3.62   434.4    4.6      29.626
2013    5       27    15  45    3.63   434.2    4.6      29.615
2013    5       27    15  51    3.63   434.0    4.6      29.605
2013    5       27    15  57    3.63   433.9    4.6      29.595
2013    5       27    16   3    3.63   433.7    4.6      29.584
2013    5       27    16   9    3.63   433.5    4.6      29.574
2013    5       27    16  15    3.64   433.3    4.6      29.564
2013    5       27    16  21    3.64   433.1    4.6      29.555
2013    5       27    16  27    3.64   433.0    4.6      29.545
2013    5       27    16  32    3.64   432.8    4.6      29.536
2013    5       27    16  38    3.65   432.6    4.6      29.527
2013    5       27    16  44    3.65   432.4    4.6      29.519
2013    5       27    16  50    3.65   432.3    4.6      29.510
2013    5       27    16  56    3.65   432.1    4.7      29.503
2013    5       27    17   2    3.65   431.9    4.7      29.495
2013    5       27    17   8    3.66   431.7    4.7      29.488
2013    5       27    17  14    3.66   431.6    4.7      29.482
2013    5       27    17  20    3.66   431.4    4.7      29.476
2013    5       27    17  26    3.66   431.2    4.7      29.470
2013    5       27    17  32    3.67   431.0    4.7      29.465
2013    5       27    17  38    3.67   430.9    4.7      29.461
2013    5       27    17  44    3.67   430.7    4.7      29.457
2013    5       27    17  50    3.68   430.5    4.7      29.454
2013    5       27    17  56    3.68   430.4    4.7      29.451
2013    5       27    18   2    3.68   430.2    4.7      29.449
2013    5       27    18   8    3.68   430.0    4.7      29.448
2013    5       27    18  14    3.69   429.9    4.7      29.447
2013    5       27    18  20    3.69   429.7    4.7      29.447
2013    5       27    18  25    3.69   429.6    4.7      29.448
2013    5       27    18  31    3.70   429.4    4.8      29.449
2013    5       27    18  37    3.70   429.2    4.8      29.451
2013    5       27    18  43    3.70   429.1    4.8      29.453
2013    5       27    18  49    3.71   428.9    4.8      29.456
2013    5       27    18  55    3.71   428.8    4.8      29.460
2013    5       27    19   1    3.71   428.6    4.8      29.464
2013    5       27    19   7    3.72   428.5    4.8      29.469
2013    5       27    19  13    3.72   428.3    4.8      29.474
2013    5       27    19  19    3.72   428.2    4.8      29.479
2013    5       27    19  25    3.73   428.0    4.8      29.485
2013    5       27    19  31    3.73   427.9    4.8      29.492
2013    5       27    19  37    3.73   427.7    4.8      29.499
2013    5       27    19  43    3.74   427.6    4.9      29.506
2013    5       27    19  49    3.74   427.4    4.9      29.514
2013    5       27    19  55    3.74   427.3    4.9      29.522
2013    5       27    20   1    3.75   427.2    4.9      29.530
2013    5       27    20   7    3.75   427.0    4.9      29.539
2013    5       27    20  12    3.75   426.9    4.9      29.547
2013    5       27    20  18    3.76   426.8    4.9      29.557
2013    5       27    20  24    3.76   426.6    4.9      29.566
2013    5       27    20  30    3.76   426.5    4.9      29.576
2013    5       27    20  36    3.77   426.4    4.9      29.586
2013    5       27    20  42    3.77   426.2    4.9      29.597
2013    5       27    20  48    3.78   426.1    5.0      29.608
2013    5       27    20  54    3.78   426.0    5.0      29.619
2013    5       27    21   0    3.78   425.8    5.0      29.630
2013    5       27    21   6    3.79   425.7    5.0      29.641
2013    5       27    21  12    3.79   425.6    5.0      29.652
2013    5       27    21  18    3.79   425.4    5.0      29.663
2013    5       27    21  24    3.80   425.3    5.0      29.674
2013    5       27    21  30    3.80   425.2    5.0      29.684
2013    5       27    21  36    3.81   425.1    5.0      29.694
2013    5       27    21  42    3.81   424.9    5.0      29.705
2013    5       27    21  48    3.81   424.8    5.0      29.715
2013    5       27    21  53    3.82   424.7    5.1      29.725
2013    5       27    21  59    3.82   424.6    5.1      29.734
2013    5       27    22   5    3.82   424.5    5.1      29.744
2013    5       27    22  11    3.83   424.3    5.1      29.753
2013    5       27    22  17    3.83   424.2    5.1      29.762
2013    5       27    22  23    3.84   424.1    5.1      29.771
2013    5       27    22  29    3.84   424.0    5.1      29.780
2013    5       27    22  35    3.84   423.9    5.1      29.788
2013    5       27    22  41    3.85   423.7    5.1      29.796
2013    5       27    22  47    3.85   423.6    5.1      29.805
2013    5       27    22  53    3.85   423.5    5.1      29.813
2013    5       27    22  59    3.86   423.4    5.1      29.821
2013    5       27    23   5    3.86   423.3    5.1      29.828
2013    5       27    23  11    3.87   423.2    5.2      29.836
2013    5       27    23  17    3.87   423.1    5.2      29.844
2013    5       27    23  23    3.87   423.0    5.2      29.851
2013    5       27    23  29    3.88   422.8    5.2      29.859
2013    5       27    23  35    3.88   422.7    5.2      29.866
2013    5       27    23  41    3.89   422.6    5.2      29.873
2013    5       27    23  47    3.89   422.5    5.2      29.881
2013    5       27    23  52    3.89   422.4    5.2      29.888
2013    5       27    23  58    3.90   422.3    5.2      29.895
2013    5       28     0   4    3.90   422.2    5.2      29.903
2013    5       28     0  10    3.91   422.1    5.2      29.910
2013    5       28     0  16    3.91   422.0    5.2      29.918
2013    5       28     0  22    3.91   421.9    5.2      29.925
2013    5       28     0  28    3.92   421.8    5.2      29.933
2013    5       28     0  34    3.92   421.7    5.3      29.941
2013    5       28     0  40    3.93   421.6    5.3      29.949
2013    5       28     0  46    3.93   421.5    5.3      29.957
2013    5       28     0  52    3.93   421.3    5.3      29.965
2013    5       28     0  58    3.94   421.2    5.3      29.974
2013    5       28     1   4    3.94   421.1    5.3      29.983
2013    5       28     1  10    3.95   421.0    5.3      29.992
2013    5       28     1  16    3.95   420.9    5.3      30.001
2013    5       28     1  22    3.95   420.9    5.3      30.010
2013    5       28     1  28    3.96   420.8    5.3      30.020
2013    5       28     1  34    3.96   420.7    5.3      30.029
2013    5       28     1  40    3.97   420.6    5.3      30.039
2013    5       28     1  45    3.97   420.5    5.3      30.050
2013    5       28     1  51    3.97   420.4    5.4      30.060
2013    5       28     1  57    3.98   420.3    5.4      30.071
2013    5       28     2   3    3.98   420.2    5.4      30.082
2013    5       28     2   9    3.99   420.1    5.4      30.093
2013    5       28     2  15    3.99   420.0    5.4      30.104
2013    5       28     2  21    3.99   419.9    5.4      30.116
2013    5       28     2  27    4.00   419.8    5.4      30.128
2013    5       28     2  33    4.00   419.7    5.4      30.140
2013    5       28     2  39    4.01   419.7    5.4      30.152
2013    5       28     2  45    4.01   419.6    5.4      30.165
2013    5       28     2  51    4.02   419.5    5.4      30.178
2013    5       28     2  57    4.02   419.4    5.4      30.191
2013    5       28     3   3    4.02   419.3    5.4      30.204
2013    5       28     3   9    4.03   419.2    5.5      30.217
2013    5       28     3  15    4.03   419.1    5.5      30.231
2013    5       28     3  21    4.04   419.1    5.5      30.244
2013    5       28     3  26    4.04   419.0    5.5      30.258
2013    5       28     3  32    4.04   418.9    5.5      30.272
2013    5       28     3  38    4.05   418.8    5.5      30.287
2013    5       28     3  44    4.05   418.7    5.5      30.301
2013    5       28     3  50    4.06   418.7    5.5      30.315
2013    5       28     3  56    4.06   418.6    5.5      30.330
2013    5       28     4   2    4.07   418.5    5.5      30.345
2013    5       28     4   8    4.07   418.4    5.5      30.360
2013    5       28     4  14    4.07   418.3    5.5      30.374
2013    5       28     4  20    4.08   418.3    5.5      30.390
2013    5       28     4  26    4.08   418.2    5.6      30.405
2013    5       28     4  32    4.09   418.1    5.6      30.420
2013    5       28     4  38    4.09   418.0    5.6      30.435
2013    5       28     4  44    4.09   418.0    5.6      30.450
2013    5       28     4  50    4.10   417.9    5.6      30.466
2013    5       28     4  56    4.10   417.8    5.6      30.481
2013    5       28     5   2    4.11   417.7    5.6      30.497
2013    5       28     5   8    4.11   417.7    5.6      30.512
2013    5       28     5  13    4.11   417.6    5.6      30.528
2013    5       28     5  19    4.12   417.5    5.6      30.543
2013    5       28     5  25    4.12   417.4    5.6      30.559
2013    5       28     5  31    4.13   417.4    5.6      30.575
2013    5       28     5  37    4.13   417.3    5.7      30.591
2013    5       28     5  43    4.13   417.2    5.7      30.606
2013    5       28     5  49    4.14   417.1    5.7      30.622
2013    5       28     5  55    4.14   417.1    5.7      30.638
2013    5       28     6   1    4.15   417.0    5.7      30.654
2013    5       28     6   7    4.15   416.9    5.7      30.670
2013    5       28     6  13    4.15   416.9    5.7      30.686
2013    5       28     6  19    4.16   416.8    5.7      30.702
2013    5       28     6  25    4.16   416.7    5.7      30.718
2013    5       28     6  31    4.17   416.7    5.7      30.734
2013    5       28     6  37    4.17   416.6    5.7      30.751
2013    5       28     6  43    4.17   416.5    5.7      30.767
2013    5       28     6  49    4.18   416.4    5.7      30.784
2013    5       28     6  55    4.18   416.4    5.8      30.800
2013    5       28     7   1    4.19   416.3    5.8      30.817
2013    5       28     7   6    4.19   416.2    5.8      30.834
2013    5       28     7  12    4.19   416.2    5.8      30.851
2013    5       28     7  18    4.20   416.1    5.8      30.867
2013    5       28     7  24    4.20   416.0    5.8      30.884
2013    5       28     7  30    4.21   416.0    5.8      30.902
2013    5       28     7  36    4.21   415.9    5.8      30.919
2013    5       28     7  42    4.21   415.9    5.8      30.936
2013    5       28     7  48    4.22   415.8    5.8      30.953
2013    5       28     7  54    4.22   415.7    5.8      30.971
2013    5       28     8   0    4.22   415.7    5.8      30.988
2013    5       28     8   6    4.23   415.6    5.8      31.005
2013    5       28     8  12    4.23   415.5    5.9      31.023
2013    5       28     8  18    4.24   415.5    5.9      31.040
2013    5       28     8  24    4.24   415.4    5.9      31.058
2013    5       28     8  30    4.24   415.4    5.9      31.076
2013    5       28     8  36    4.25   415.3    5.9      31.093
2013    5       28     8  42    4.25   415.2    5.9      31.111
2013    5       28     8  48    4.25   415.2    5.9      31.129
2013    5       28     8  54    4.26   415.1    5.9      31.146
2013    5       28     8  59    4.26   415.1    5.9      31.164
2013    5       28     9   5    4.27   415.0    5.9      31.182
2013    5       28     9  11    4.27   415.0    5.9      31.200
2013    5       28     9  17    4.27   414.9    5.9      31.218
2013    5       28     9  23    4.28   414.8    5.9      31.236
2013    5       28     9  29    4.28   414.8    6.0      31.254
2013    5       28     9  35    4.28   414.7    6.0      31.272
2013    5       28     9  41    4.29   414.7    6.0      31.290
2013    5       28     9  47    4.29   414.6    6.0      31.308
2013    5       28     9  53    4.30   414.6    6.0      31.326
2013    5       28     9  59    4.30   414.5    6.0      31.344
2013    5       28    10   5    4.30   414.5    6.0      31.362
2013    5       28    10  11    4.31   414.4    6.0      31.381
2013    5       28    10  17    4.31   414.4    6.0      31.399
2013    5       28    10  23    4.31   414.3    6.0      31.418
2013    5       28    10  29    4.32   414.3    6.0      31.436
2013    5       28    10  35    4.32   414.2    6.0      31.455
2013    5       28    10  40    4.32   414.2    6.0      31.473
2013    5       28    10  46    4.33   414.1    6.0      31.492
2013    5       28    10  52    4.33   414.1    6.1      31.511
2013    5       28    10  58    4.33   414.0    6.1      31.530
2013    5       28    11   4    4.34   414.0    6.1      31.549
2013    5       28    11  10    4.34   413.9    6.1      31.568
2013    5       28    11  16    4.34   413.9    6.1      31.588
2013    5       28    11  22    4.35   413.8    6.1      31.607
2013    5       28    11  28    4.35   413.8    6.1      31.627
2013    5       28    11  34    4.35   413.7    6.1      31.646
2013    5       28    11  40    4.36   413.7    6.1      31.666
2013    5       28    11  46    4.36   413.6    6.1      31.686
2013    5       28    11  52    4.36   413.6    6.1      31.706
2013    5       28    11  58    4.37   413.6    6.1      31.726
2013    5       28    12   4    4.37   413.5    6.1      31.747
2013    5       28    12  10    4.37   413.5    6.1      31.767
2013    5       28    12  16    4.38   413.4    6.1      31.788
2013    5       28    12  21    4.38   413.4    6.2      31.809
2013    5       28    12  27    4.38   413.4    6.2      31.830
2013    5       28    12  33    4.39   413.3    6.2      31.851
2013    5       28    12  39    4.39   413.3    6.2      31.872
2013    5       28    12  45    4.39   413.2    6.2      31.894
2013    5       28    12  51    4.40   413.2    6.2      31.915
2013    5       28    12  57    4.40   413.2    6.2      31.937
2013    5       28    13   3    4.40   413.1    6.2      31.959
2013    5       28    13   9    4.41   413.1    6.2      31.981
2013    5       28    13  15    4.41   413.0    6.2      32.003
2013    5       28    13  21    4.41   413.0    6.2      32.025
2013    5       28    13  27    4.42   413.0    6.2      32.048
2013    5       28    13  33    4.42   412.9    6.2      32.070
2013    5       28    13  39    4.42   412.9    6.3      32.092
2013    5       28    13  45    4.42   412.9    6.3      32.115
2013    5       28    13  51    4.43   412.8    6.3      32.138
2013    5       28    13  57    4.43   412.8    6.3      32.160
2013    5       28    14   3    4.43   412.8    6.3      32.183
2013    5       28    14   9    4.44   412.7    6.3      32.206
2013    5       28    14  14    4.44   412.7    6.3      32.229
2013    5       28    14  20    4.44   412.7    6.3      32.252
2013    5       28    14  26    4.45   412.6    6.3      32.275
2013    5       28    14  32    4.45   412.6    6.3      32.298
2013    5       28    14  38    4.45   412.6    6.3      32.322
2013    5       28    14  44    4.45   412.5    6.3      32.345
2013    5       28    14  50    4.46   412.5    6.3      32.369
2013    5       28    14  56    4.46   412.5    6.3      32.392
2013    5       28    15   2    4.46   412.4    6.3      32.416
2013    5       28    15   8    4.46   412.4    6.4      32.439
2013    5       28    15  14    4.47   412.4    6.4      32.463
2013    5       28    15  20    4.47   412.4    6.4      32.486
2013    5       28    15  26    4.47   412.3    6.4      32.510
2013    5       28    15  32    4.48   412.3    6.4      32.533
2013    5       28    15  38    4.48   412.3    6.4      32.556
2013    5       28    15  44    4.48   412.2    6.4      32.579
2013    5       28    15  50    4.48   412.2    6.4      32.602
2013    5       28    15  56    4.49   412.2    6.4      32.624
2013    5       28    16   2    4.49   412.2    6.4      32.647
2013    5       28    16   7    4.49   412.1    6.4      32.669
2013    5       28    16  13    4.49   412.1    6.4      32.691
2013    5       28    16  19    4.50   412.1    6.4      32.713
2013    5       28    16  25    4.50   412.0    6.4      32.735
2013    5       28    16  31    4.50   412.0    6.4      32.756
2013    5       28    16  37    4.50   412.0    6.4      32.778
2013    5       28    16  43    4.51   412.0    6.5      32.799
2013    5       28    16  49    4.51   411.9    6.5      32.820
2013    5       28    16  55    4.51   411.9    6.5      32.841
2013    5       28    17   1    4.51   411.9    6.5      32.862
2013    5       28    17   7    4.51   411.9    6.5      32.883
2013    5       28    17  13    4.52   411.8    6.5      32.903
2013    5       28    17  19    4.52   411.8    6.5      32.923
2013    5       28    17  25    4.52   411.8    6.5      32.944
2013    5       28    17  31    4.52   411.8    6.5      32.964
2013    5       28    17  37    4.53   411.7    6.5      32.984
2013    5       28    17  43    4.53   411.7    6.5      33.004
2013    5       28    17  48    4.53   411.7    6.5      33.023
2013    5       28    17  54    4.53   411.7    6.5      33.043
2013    5       28    18   0    4.53   411.6    6.5      33.063
2013    5       28    18   6    4.54   411.6    6.5      33.082
2013    5       28    18  12    4.54   411.6    6.5      33.102
2013    5       28    18  18    4.54   411.6    6.5      33.121
2013    5       28    18  24    4.54   411.5    6.5      33.141
2013    5       28    18  30    4.54   411.5    6.5      33.160
2013    5       28    18  36    4.55   411.5    6.6      33.180
2013    5       28    18  42    4.55   411.5    6.6      33.199
2013    5       28    18  48    4.55   411.5    6.6      33.218
2013    5       28    18  54    4.55   411.4    6.6      33.238
2013    5       28    19   0    4.55   411.4    6.6      33.257
2013    5       28    19   6    4.56   411.4    6.6      33.276
2013    5       28    19  12    4.56   411.4    6.6      33.296
2013    5       28    19  18    4.56   411.4    6.6      33.315
2013    5       28    19  23    4.56   411.4    6.6      33.335
2013    5       28    19  29    4.56   411.3    6.6      33.354
2013    5       28    19  35    4.57   411.3    6.6      33.374
2013    5       28    19  41    4.57   411.3    6.6      33.393
2013    5       28    19  47    4.57   411.3    6.6      33.413
2013    5       28    19  53    4.57   411.3    6.6      33.432
2013    5       28    19  59    4.57   411.3    6.6      33.452
2013    5       28    20   5    4.57   411.2    6.6      33.471
2013    5       28    20  11    4.58   411.2    6.6      33.491
2013    5       28    20  17    4.58   411.2    6.6      33.510
2013    5       28    20  23    4.58   411.2    6.6      33.530
2013    5       28    20  29    4.58   411.2    6.6      33.549
2013    5       28    20  35    4.58   411.2    6.6      33.569
2013    5       28    20  41    4.58   411.1    6.7      33.588
2013    5       28    20  47    4.58   411.1    6.7      33.607
2013    5       28    20  53    4.59   411.1    6.7      33.627
2013    5       28    20  59    4.59   411.1    6.7      33.646
2013    5       28    21   5    4.59   411.1    6.7      33.665
2013    5       28    21  11    4.59   411.1    6.7      33.684
2013    5       28    21  16    4.59   411.1    6.7      33.703
2013    5       28    21  22    4.59   411.0    6.7      33.722
2013    5       28    21  28    4.59   411.0    6.7      33.741
2013    5       28    21  34    4.60   411.0    6.7      33.760
2013    5       28    21  40    4.60   411.0    6.7      33.778
2013    5       28    21  46    4.60   411.0    6.7      33.797
2013    5       28    21  52    4.60   411.0    6.7      33.816
2013    5       28    21  58    4.60   411.0    6.7      33.835
2013    5       28    22   4    4.60   411.0    6.7      33.854
2013    5       28    22  10    4.60   410.9    6.7      33.873
2013    5       28    22  16    4.60   410.9    6.7      33.891
2013    5       28    22  22    4.61   410.9    6.7      33.910
2013    5       28    22  28    4.61   410.9    6.7      33.928
2013    5       28    22  34    4.61   410.9    6.7      33.947
2013    5       28    22  40    4.61   410.9    6.7      33.965
2013    5       28    22  46    4.61   410.9    6.7      33.983
2013    5       28    22  52    4.61   410.8    6.7      34.000
2013    5       28    22  58    4.61   410.8    6.7      34.018
2013    5       28    23   3    4.61   410.8    6.7      34.036
2013    5       28    23   9    4.61   410.8    6.7      34.053
2013    5       28    23  15    4.62   410.8    6.7      34.070
2013    5       28    23  21    4.62   410.8    6.8      34.087
2013    5       28    23  27    4.62   410.8    6.8      34.103
2013    5       28    23  33    4.62   410.7    6.8      34.120
2013    5       28    23  39    4.62   410.7    6.8      34.136
2013    5       28    23  45    4.62   410.7    6.8      34.152
2013    5       28    23  51    4.62   410.7    6.8      34.168
2013    5       28    23  57    4.62   410.7    6.8      34.184
2013    5       29     0   3    4.62   410.7    6.8      34.200
2013    5       29     0   9    4.62   410.7    6.8      34.215
2013    5       29     0  15    4.62   410.6    6.8      34.230
2013    5       29     0  21    4.63   410.6    6.8      34.245
2013    5       29     0  27    4.63   410.6    6.8      34.260
2013    5       29     0  33    4.63   410.6    6.8      34.275
2013    5       29     0  39    4.63   410.6    6.8      34.290
2013    5       29     0  45    4.63   410.6    6.8      34.304
2013    5       29     0  50    4.63   410.6    6.8      34.318
2013    5       29     0  56    4.63   410.6    6.8      34.332
2013    5       29     1   2    4.63   410.5    6.8      34.346
2013    5       29     1   8    4.63   410.5    6.8      34.360
2013    5       29     1  14    4.63   410.5    6.8      34.374
2013    5       29     1  20    4.63   410.5    6.8      34.388
2013    5       29     1  26    4.63   410.5    6.8      34.401
2013    5       29     1  32    4.64   410.5    6.8      34.415
2013    5       29     1  38    4.64   410.5    6.8      34.428
2013    5       29     1  44    4.64   410.4    6.8      34.442
2013    5       29     1  50    4.64   410.4    6.8      34.455
2013    5       29     1  56    4.64   410.4    6.8      34.468
2013    5       29     2   2    4.64   410.4    6.8      34.481
2013    5       29     2   8    4.64   410.4    6.8      34.494
2013    5       29     2  14    4.64   410.4    6.8      34.507
2013    5       29     2  20    4.64   410.4    6.8      34.520
2013    5       29     2  25    4.64   410.4    6.8      34.532
2013    5       29     2  31    4.64   410.3    6.8      34.544
2013    5       29     2  37    4.64   410.3    6.8      34.556
2013    5       29     2  43    4.64   410.3    6.8      34.568
2013    5       29     2  49    4.64   410.3    6.8      34.579
2013    5       29     2  55    4.64   410.3    6.8      34.590
2013    5       29     3   1    4.64   410.3    6.8      34.602
2013    5       29     3   7    4.64   410.3    6.8      34.612
2013    5       29     3  13    4.64   410.2    6.8      34.623
2013    5       29     3  19    4.64   410.2    6.8      34.633
2013    5       29     3  25    4.64   410.2    6.8      34.644
2013    5       29     3  31    4.64   410.2    6.8      34.654
2013    5       29     3  37    4.64   410.2    6.8      34.663
2013    5       29     3  43    4.64   410.2    6.8      34.673
2013    5       29     3  49    4.64   410.2    6.9      34.682
2013    5       29     3  55    4.64   410.1    6.9      34.692
2013    5       29     4   1    4.65   410.1    6.9      34.701
2013    5       29     4   7    4.65   410.1    6.9      34.709
2013    5       29     4  12    4.65   410.1    6.9      34.718
2013    5       29     4  18    4.65   410.1    6.9      34.726
2013    5       29     4  24    4.65   410.1    6.9      34.734
2013    5       29     4  30    4.65   410.1    6.9      34.742
2013    5       29     4  36    4.65   410.0    6.9      34.750
2013    5       29     4  42    4.65   410.0    6.9      34.758
2013    5       29     4  48    4.65   410.0    6.9      34.765
2013    5       29     4  54    4.65   410.0    6.9      34.772
2013    5       29     5   0    4.65   410.0    6.9      34.779
2013    5       29     5   6    4.65   410.0    6.9      34.786
2013    5       29     5  12    4.65   409.9    6.9      34.793
2013    5       29     5  18    4.65   409.9    6.9      34.799
2013    5       29     5  24    4.65   409.9    6.9      34.805
2013    5       29     5  30    4.65   409.9    6.9      34.811
2013    5       29     5  36    4.65   409.9    6.9      34.817
2013    5       29     5  42    4.65   409.9    6.9      34.823
2013    5       29     5  48    4.65   409.8    6.9      34.829
2013    5       29     5  54    4.65   409.8    6.9      34.834
2013    5       29     6   0    4.65   409.8    6.9      34.839
2013    5       29     6   5    4.65   409.8    6.9      34.844
2013    5       29     6  11    4.65   409.8    6.9      34.850
2013    5       29     6  17    4.65   409.7    6.9      34.855
2013    5       29     6  23    4.65   409.7    6.9      34.859
2013    5       29     6  29    4.65   409.7    6.9      34.864
2013    5       29     6  35    4.65   409.7    6.9      34.869
2013    5       29     6  41    4.65   409.7    6.9      34.874
2013    5       29     6  47    4.65   409.6    6.9      34.879
2013    5       29     6  53    4.65   409.6    6.9      34.883
2013    5       29     6  59    4.65   409.6    6.9      34.888
2013    5       29     7   5    4.65   409.6    6.9      34.893
2013    5       29     7  11    4.65   409.6    6.9      34.898
2013    5       29     7  17    4.65   409.5    6.9      34.902
2013    5       29     7  23    4.65   409.5    6.9      34.907
2013    5       29     7  29    4.65   409.5    6.9      34.912
2013    5       29     7  35    4.65   409.5    6.9      34.917
2013    5       29     7  41    4.65   409.4    6.9      34.922
2013    5       29     7  46    4.65   409.4    6.9      34.927
2013    5       29     7  52    4.65   409.4    6.9      34.932
2013    5       29     7  58    4.65   409.4    6.9      34.937
2013    5       29     8   4    4.65   409.4    6.9      34.942
2013    5       29     8  10    4.65   409.3    6.9      34.947
2013    5       29     8  16    4.65   409.3    6.9      34.953
2013    5       29     8  22    4.65   409.3    6.9      34.958
2013    5       29     8  28    4.65   409.3    6.9      34.963
2013    5       29     8  34    4.65   409.2    6.9      34.968
2013    5       29     8  40    4.65   409.2    6.9      34.974
2013    5       29     8  46    4.65   409.2    6.9      34.979
2013    5       29     8  52    4.65   409.2    6.9      34.984
2013    5       29     8  58    4.65   409.2    6.9      34.990
2013    5       29     9   4    4.65   409.1    6.9      34.995
2013    5       29     9  10    4.65   409.1    6.9      35.001
2013    5       29     9  16    4.65   409.1    6.9      35.006
2013    5       29     9  21    4.65   409.1    6.9      35.011
2013    5       29     9  27    4.65   409.0    6.9      35.017
2013    5       29     9  33    4.65   409.0    6.9      35.022
2013    5       29     9  39    4.65   409.0    6.9      35.027
2013    5       29     9  45    4.65   409.0    6.9      35.032
2013    5       29     9  51    4.65   408.9    6.9      35.036
2013    5       29     9  57    4.65   408.9    6.9      35.041
2013    5       29    10   3    4.65   408.9    6.9      35.045
2013    5       29    10   9    4.65   408.8    6.9      35.049
2013    5       29    10  15    4.65   408.8    6.9      35.053
2013    5       29    10  21    4.65   408.8    6.9      35.057
2013    5       29    10  27    4.65   408.8    6.9      35.060
2013    5       29    10  33    4.65   408.7    6.9      35.063
2013    5       29    10  39    4.65   408.7    6.9      35.066
2013    5       29    10  45    4.65   408.7    6.9      35.069
2013    5       29    10  51    4.65   408.7    6.9      35.072
2013    5       29    10  57    4.65   408.6    6.9      35.074
2013    5       29    11   3    4.65   408.6    6.9      35.076
2013    5       29    11   8    4.65   408.6    6.9      35.078
2013    5       29    11  14    4.65   408.5    6.9      35.080
2013    5       29    11  20    4.65   408.5    6.9      35.082
2013    5       29    11  26    4.64   408.5    6.9      35.083
2013    5       29    11  32    4.64   408.5    6.9      35.084
2013    5       29    11  38    4.64   408.4    6.9      35.084
2013    5       29    11  44    4.64   408.4    6.9      35.085
2013    5       29    11  50    4.64   408.4    6.9      35.085
2013    5       29    11  56    4.64   408.3    6.9      35.085
2013    5       29    12   2    4.64   408.3    6.9      35.085
2013    5       29    12   8    4.64   408.3    6.9      35.084
2013    5       29    12  14    4.64   408.3    6.9      35.083
2013    5       29    12  20    4.64   408.2    6.9      35.082
2013    5       29    12  26    4.64   408.2    6.9      35.081
2013    5       29    12  32    4.64   408.2    6.9      35.079
2013    5       29    12  38    4.64   408.1    6.9      35.077
2013    5       29    12  44    4.64   408.1    6.9      35.075
2013    5       29    12  50    4.64   408.1    6.9      35.073
2013    5       29    12  55    4.64   408.0    6.9      35.071
2013    5       29    13   1    4.64   408.0    6.9      35.068
2013    5       29    13   7    4.64   408.0    6.9      35.065
2013    5       29    13  13    4.64   407.9    6.9      35.062
2013    5       29    13  19    4.64   407.9    6.9      35.058
2013    5       29    13  25    4.64   407.9    6.9      35.055
2013    5       29    13  31    4.64   407.8    6.9      35.051
2013    5       29    13  37    4.64   407.8    6.9      35.047
2013    5       29    13  43    4.64   407.8    6.9      35.043
2013    5       29    13  49    4.64   407.7    6.9      35.039
2013    5       29    13  55    4.64   407.7    6.9      35.035
2013    5       29    14   1    4.64   407.6    6.9      35.030
2013    5       29    14   7    4.64   407.6    6.9      35.026
2013    5       29    14  13    4.64   407.6    6.9      35.022
2013    5       29    14  19    4.64   407.5    6.9      35.017
2013    5       29    14  25    4.64   407.5    6.9      35.012
2013    5       29    14  31    4.64   407.5    6.9      35.008
2013    5       29    14  37    4.64   407.4    6.9      35.003
2013    5       29    14  42    4.64   407.4    6.9      34.998
2013    5       29    14  48    4.64   407.3    6.9      34.994
2013    5       29    14  54    4.64   407.3    6.9      34.989
2013    5       29    15   0    4.64   407.3    6.9      34.985
2013    5       29    15   6    4.64   407.2    6.9      34.980
2013    5       29    15  12    4.64   407.2    6.9      34.976
2013    5       29    15  18    4.64   407.1    6.9      34.971
2013    5       29    15  24    4.64   407.1    6.9      34.967
2013    5       29    15  30    4.64   407.1    6.9      34.963
2013    5       29    15  36    4.64   407.0    6.9      34.959
2013    5       29    15  42    4.64   407.0    6.9      34.955
2013    5       29    15  48    4.63   406.9    6.9      34.951
2013    5       29    15  54    4.63   406.9    6.9      34.947
2013    5       29    16   0    4.63   406.8    6.9      34.943
2013    5       29    16   6    4.63   406.8    6.9      34.939
2013    5       29    16  11    4.63   406.8    6.9      34.936
2013    5       29    16  17    4.63   406.7    6.9      34.932
2013    5       29    16  23    4.63   406.7    6.9      34.929
2013    5       29    16  29    4.63   406.6    6.9      34.926
2013    5       29    16  35    4.64   406.6    6.9      34.923
2013    5       29    16  41    4.64   406.5    6.9      34.920
2013    5       29    16  47    4.64   406.5    6.9      34.917
2013    5       29    16  53    4.64   406.4    6.9      34.914
2013    5       29    16  59    4.64   406.4    6.9      34.911
2013    5       29    17   5    4.64   406.4    6.9      34.908
2013    5       29    17  11    4.64   406.3    6.9      34.906
2013    5       29    17  17    4.64   406.3    6.9      34.903
2013    5       29    17  23    4.64   406.2    6.9      34.900
2013    5       29    17  29    4.64   406.2    6.9      34.898
2013    5       29    17  35    4.64   406.1    6.9      34.896
2013    5       29    17  41    4.64   406.1    6.9      34.893
2013    5       29    17  47    4.64   406.0    6.9      34.891
2013    5       29    17  52    4.64   406.0    6.9      34.889
2013    5       29    17  58    4.64   405.9    6.9      34.886
2013    5       29    18   4    4.64   405.9    6.9      34.884
2013    5       29    18  10    4.64   405.8    6.9      34.882
2013    5       29    18  16    4.64   405.8    6.9      34.880
2013    5       29    18  22    4.64   405.7    6.9      34.877
2013    5       29    18  28    4.64   405.7    6.9      34.875
2013    5       29    18  34    4.64   405.6    6.9      34.873
2013    5       29    18  40    4.64   405.6    6.9      34.871
2013    5       29    18  46    4.64   405.5    6.9      34.868
2013    5       29    18  52    4.64   405.5    6.9      34.866
2013    5       29    18  58    4.64   405.4    6.9      34.863
2013    5       29    19   4    4.64   405.4    6.9      34.860
2013    5       29    19  10    4.64   405.3    6.9      34.858
2013    5       29    19  16    4.64   405.3    6.9      34.855
2013    5       29    19  22    4.64   405.2    6.9      34.852
2013    5       29    19  28    4.64   405.2    6.9      34.849
2013    5       29    19  34    4.64   405.1    6.9      34.845
2013    5       29    19  40    4.64   405.1    6.9      34.842
2013    5       29    19  45    4.64   405.0    6.9      34.838
2013    5       29    19  51    4.64   405.0    6.9      34.835
2013    5       29    19  57    4.64   404.9    6.9      34.831
2013    5       29    20   3    4.64   404.8    6.9      34.827
2013    5       29    20   9    4.64   404.8    6.9      34.823
2013    5       29    20  15    4.64   404.7    6.9      34.818
2013    5       29    20  21    4.64   404.7    6.9      34.814
2013    5       29    20  27    4.64   404.6    6.9      34.809
2013    5       29    20  33    4.64   404.6    6.9      34.804
2013    5       29    20  39    4.64   404.5    6.9      34.799
2013    5       29    20  45    4.65   404.5    6.9      34.794
2013    5       29    20  51    4.65   404.4    6.9      34.788
2013    5       29    20  57    4.65   404.3    6.9      34.783
2013    5       29    21   3    4.65   404.3    6.9      34.777
2013    5       29    21   9    4.65   404.2    6.9      34.771
2013    5       29    21  15    4.65   404.2    6.9      34.765
2013    5       29    21  21    4.65   404.1    6.9      34.758
2013    5       29    21  26    4.65   404.1    6.9      34.752
2013    5       29    21  32    4.65   404.0    6.9      34.745
2013    5       29    21  38    4.65   403.9    6.9      34.738
2013    5       29    21  44    4.65   403.9    6.9      34.731
2013    5       29    21  50    4.65   403.8    7.0      34.724
2013    5       29    21  56    4.65   403.8    7.0      34.717
2013    5       29    22   2    4.65   403.7    7.0      34.710
2013    5       29    22   8    4.65   403.6    7.0      34.702
2013    5       29    22  14    4.65   403.6    7.0      34.695
2013    5       29    22  20    4.65   403.5    7.0      34.688
2013    5       29    22  26    4.65   403.4    7.0      34.680
2013    5       29    22  32    4.66   403.4    7.0      34.673
2013    5       29    22  38    4.66   403.3    7.0      34.665
2013    5       29    22  44    4.66   403.3    7.0      34.658
2013    5       29    22  50    4.66   403.2    7.0      34.650
2013    5       29    22  56    4.66   403.1    7.0      34.643
2013    5       29    23   1    4.66   403.1    7.0      34.636
2013    5       29    23   7    4.66   403.0    7.0      34.629
2013    5       29    23  13    4.66   402.9    7.0      34.622
2013    5       29    23  19    4.66   402.9    7.0      34.615
2013    5       29    23  25    4.66   402.8    7.0      34.608
2013    5       29    23  31    4.66   402.7    7.0      34.602
2013    5       29    23  37    4.67   402.7    7.0      34.595
2013    5       29    23  43    4.67   402.6    7.0      34.589
2013    5       29    23  49    4.67   402.5    7.0      34.583
2013    5       29    23  55    4.67   402.5    7.0      34.577
2013    5       30     0   1    4.67   402.4    7.0      34.571
2013    5       30     0   7    4.67   402.3    7.0      34.566
2013    5       30     0  13    4.67   402.3    7.0      34.560
2013    5       30     0  19    4.67   402.2    7.0      34.555
2013    5       30     0  25    4.68   402.1    7.0      34.550
2013    5       30     0  31    4.68   402.1    7.0      34.546
2013    5       30     0  36    4.68   402.0    7.0      34.541
2013    5       30     0  42    4.68   401.9    7.0      34.537
2013    5       30     0  48    4.68   401.9    7.0      34.533
2013    5       30     0  54    4.68   401.8    7.0      34.529
2013    5       30     1   0    4.68   401.7    7.0      34.525
2013    5       30     1   6    4.69   401.6    7.0      34.522
2013    5       30     1  12    4.69   401.6    7.0      34.519
2013    5       30     1  18    4.69   401.5    7.0      34.516
2013    5       30     1  24    4.69   401.4    7.1      34.513
2013    5       30     1  30    4.69   401.4    7.1      34.511
2013    5       30     1  36    4.69   401.3    7.1      34.508
2013    5       30     1  42    4.70   401.2    7.1      34.506
2013    5       30     1  48    4.70   401.1    7.1      34.504
2013    5       30     1  54    4.70   401.1    7.1      34.503
2013    5       30     2   0    4.70   401.0    7.1      34.501
2013    5       30     2   6    4.70   400.9    7.1      34.500
2013    5       30     2  12    4.71   400.8    7.1      34.499
2013    5       30     2  18    4.71   400.8    7.1      34.498
2013    5       30     2  23    4.71   400.7    7.1      34.497
2013    5       30     2  29    4.71   400.6    7.1      34.496
2013    5       30     2  35    4.72   400.6    7.1      34.496
2013    5       30     2  41    4.72   400.5    7.1      34.495
2013    5       30     2  47    4.72   400.4    7.1      34.495
2013    5       30     2  53    4.72   400.3    7.1      34.495
2013    5       30     2  59    4.72   400.3    7.1      34.495
2013    5       30     3   5    4.73   400.2    7.1      34.495
2013    5       30     3  11    4.73   400.1    7.1      34.495
2013    5       30     3  17    4.73   400.0    7.1      34.496
2013    5       30     3  23    4.74   400.0    7.1      34.496
2013    5       30     3  29    4.74   399.9    7.2      34.497
2013    5       30     3  35    4.74   399.8    7.2      34.497
2013    5       30     3  41    4.74   399.7    7.2      34.498
2013    5       30     3  47    4.75   399.7    7.2      34.499
2013    5       30     3  53    4.75   399.6    7.2      34.500
2013    5       30     3  59    4.75   399.5    7.2      34.500
2013    5       30     4   5    4.75   399.4    7.2      34.501
2013    5       30     4  10    4.76   399.4    7.2      34.502
2013    5       30     4  16    4.76   399.3    7.2      34.502
2013    5       30     4  22    4.76   399.2    7.2      34.503
2013    5       30     4  28    4.77   399.1    7.2      34.504
2013    5       30     4  34    4.77   399.1    7.2      34.504
2013    5       30     4  40    4.77   399.0    7.2      34.505
2013    5       30     4  46    4.78   398.9    7.2      34.506
2013    5       30     4  52    4.78   398.8    7.2      34.506
2013    5       30     4  58    4.78   398.7    7.2      34.506
2013    5       30     5   4    4.79   398.7    7.2      34.507
2013    5       30     5  10    4.79   398.6    7.3      34.507
2013    5       30     5  16    4.79   398.5    7.3      34.507
2013    5       30     5  22    4.80   398.4    7.3      34.507
2013    5       30     5  28    4.80   398.4    7.3      34.507
2013    5       30     5  34    4.80   398.3    7.3      34.506
2013    5       30     5  40    4.81   398.2    7.3      34.506
2013    5       30     5  45    4.81   398.1    7.3      34.506
2013    5       30     5  51    4.81   398.1    7.3      34.505
2013    5       30     5  57    4.82   398.0    7.3      34.504
2013    5       30     6   3    4.82   397.9    7.3      34.504
2013    5       30     6   9    4.82   397.8    7.3      34.503
2013    5       30     6  15    4.83   397.7    7.3      34.502
2013    5       30     6  21    4.83   397.7    7.3      34.501
2013    5       30     6  27    4.84   397.6    7.3      34.500
2013    5       30     6  33    4.84   397.5    7.3      34.498
2013    5       30     6  39    4.84   397.4    7.4      34.497
2013    5       30     6  45    4.85   397.3    7.4      34.496
2013    5       30     6  51    4.85   397.3    7.4      34.494
2013    5       30     6  57    4.86   397.2    7.4      34.493
2013    5       30     7   3    4.86   397.1    7.4      34.491
2013    5       30     7   9    4.86   397.0    7.4      34.490
2013    5       30     7  14    4.87   396.9    7.4      34.489
2013    5       30     7  20    4.87   396.9    7.4      34.487
2013    5       30     7  26    4.88   396.8    7.4      34.486
2013    5       30     7  32    4.88   396.7    7.4      34.485
2013    5       30     7  38    4.89   396.6    7.4      34.484
2013    5       30     7  44    4.89   396.5    7.4      34.483
2013    5       30     7  50    4.90   396.4    7.5      34.483
2013    5       30     7  56    4.90   396.4    7.5      34.483
2013    5       30     8   2    4.91   396.3    7.5      34.483
2013    5       30     8   8    4.91   396.2    7.5      34.484
2013    5       30     8  14    4.92   396.1    7.5      34.485
2013    5       30     8  20    4.92   396.0    7.5      34.487
2013    5       30     8  26    4.93   395.9    7.5      34.490
2013    5       30     8  32    4.93   395.9    7.5      34.494
2013    5       30     8  38    4.94   395.8    7.5      34.499
2013    5       30     8  44    4.94   395.7    7.5      34.504
2013    5       30     8  50    4.95   395.6    7.6      34.511
2013    5       30     8  56    4.96   395.5    7.6      34.518
2013    5       30     9   1    4.96   395.5    7.6      34.526
2013    5       30     9   7    4.97   395.4    7.6      34.535
2013    5       30     9  13    4.97   395.3    7.6      34.545
2013    5       30     9  19    4.98   395.2    7.6      34.555
2013    5       30     9  25    4.99   395.2    7.6      34.565
2013    5       30     9  31    4.99   395.1    7.6      34.576
2013    5       30     9  37    5.00   395.0    7.7      34.589
2013    5       30     9  43    5.01   394.9    7.7      34.603
2013    5       30     9  49    5.01   394.9    7.7      34.619
2013    5       30     9  55    5.02   394.8    7.7      34.636
2013    5       30    10   1    5.03   394.8    7.7      34.655
2013    5       30    10   7    5.03   394.7    7.7      34.676
2013    5       30    10  13    5.04   394.7    7.7      34.697
2013    5       30    10  19    5.05   394.6    7.8      34.720
2013    5       30    10  25    5.05   394.6    7.8      34.744
2013    5       30    10  31    5.06   394.5    7.8      34.767
2013    5       30    10  37    5.07   394.5    7.8      34.790
2013    5       30    10  43    5.07   394.4    7.8      34.812
2013    5       30    10  48    5.08   394.4    7.8      34.834
2013    5       30    10  54    5.09   394.4    7.8      34.855
2013    5       30    11   0    5.09   394.3    7.8      34.876
2013    5       30    11   6    5.10   394.3    7.8      34.897
2013    5       30    11  12    5.11   394.2    7.9      34.917
2013    5       30    11  18    5.11   394.2    7.9      34.937
2013    5       30    11  24    5.12   394.2    7.9      34.956
2013    5       30    11  30    5.13   394.1    7.9      34.974
2013    5       30    11  36    5.13   394.1    7.9      34.993
2013    5       30    11  42    5.14   394.0    7.9      35.010
2013    5       30    11  48    5.15   394.0    7.9      35.028
2013    5       30    11  54    5.16   393.9    7.9      35.045
2013    5       30    12   0    5.16   393.9    7.9      35.062
2013    5       30    12   6    5.17   393.8    8.0      35.078
2013    5       30    12  12    5.18   393.8    8.0      35.095
2013    5       30    12  18    5.18   393.8    8.0      35.111
2013    5       30    12  24    5.19   393.7    8.0      35.127
2013    5       30    12  29    5.20   393.7    8.0      35.143
2013    5       30    12  35    5.21   393.6    8.0      35.160
2013    5       30    12  41    5.21   393.6    8.0      35.176
2013    5       30    12  47    5.22   393.5    8.0      35.192
2013    5       30    12  53    5.23   393.5    8.1      35.208
2013    5       30    12  59    5.24   393.5    8.1      35.224
2013    5       30    13   5    5.24   393.4    8.1      35.240
2013    5       30    13  11    5.25   393.4    8.1      35.257
2013    5       30    13  17    5.26   393.3    8.1      35.273
2013    5       30    13  23    5.27   393.3    8.1      35.290
2013    5       30    13  29    5.28   393.3    8.1      35.307
2013    5       30    13  35    5.29   393.2    8.1      35.324
2013    5       30    13  41    5.29   393.2    8.2      35.343
2013    5       30    13  47    5.30   393.1    8.2      35.361
2013    5       30    13  53    5.31   393.1    8.2      35.380
2013    5       30    13  58    5.32   393.0    8.2      35.399
2013    5       30    14   4    5.33   393.0    8.2      35.421
2013    5       30    14  10    5.34   393.0    8.2      35.444
2013    5       30    14  16    5.35   392.9    8.3      35.469
2013    5       30    14  22    5.36   392.9    8.3      35.496
2013    5       30    14  28    5.37   392.9    8.3      35.525
2013    5       30    14  34    5.38   392.9    8.3      35.556
2013    5       30    14  40    5.40   392.9    8.3      35.588
2013    5       30    14  46    5.41   392.8    8.4      35.623
2013    5       30    14  52    5.42   392.8    8.4      35.658
2013    5       30    14  58    5.43   392.8    8.4      35.694
2013    5       30    15   4    5.44   392.8    8.4      35.731
2013    5       30    15  10    5.45   392.8    8.5      35.768
2013    5       30    15  16    5.47   392.8    8.5      35.805
2013    5       30    15  22    5.48   392.8    8.5      35.844
2013    5       30    15  27    5.49   392.8    8.5      35.886
2013    5       30    15  33    5.50   392.8    8.6      35.932
2013    5       30    15  39    5.52   392.8    8.6      35.980
2013    5       30    15  45    5.53   392.9    8.6      36.031
2013    5       30    15  51    5.54   392.9    8.6      36.084
2013    5       30    15  57    5.56   392.9    8.7      36.141
2013    5       30    16   3    5.57   393.0    8.7      36.200
2013    5       30    16   9    5.58   393.1    8.7      36.258
2013    5       30    16  15    5.60   393.1    8.7      36.316
2013    5       30    16  21    5.61   393.2    8.8      36.372
2013    5       30    16  27    5.62   393.2    8.8      36.427
2013    5       30    16  33    5.64   393.3    8.8      36.481
2013    5       30    16  39    5.65   393.3    8.8      36.535
2013    5       30    16  45    5.66   393.4    8.8      36.588
2013    5       30    16  51    5.68   393.4    8.9      36.639
2013    5       30    16  57    5.69   393.5    8.9      36.689
2013    5       30    17   3    5.70   393.5    8.9      36.739
2013    5       30    17   9    5.71   393.6    8.9      36.788
2013    5       30    17  15    5.73   393.7    9.0      36.838
2013    5       30    17  20    5.74   393.7    9.0      36.888
2013    5       30    17  26    5.75   393.8    9.0      36.938
2013    5       30    17  32    5.77   393.9    9.0      36.989
2013    5       30    17  38    5.78   393.9    9.0      37.040
2013    5       30    17  44    5.79   394.0    9.0      37.092
2013    5       30    17  50    5.81   394.1    9.1      37.143
2013    5       30    17  56    5.82   394.2    9.1      37.193
2013    5       30    18   2    5.83   394.2    9.1      37.243
2013    5       30    18   8    5.84   394.3    9.1      37.291
2013    5       30    18  14    5.86   394.4    9.1      37.339
2013    5       30    18  20    5.87   394.4    9.1      37.385
2013    5       30    18  26    5.88   394.5    9.2      37.431
2013    5       30    18  32    5.90   394.6    9.2      37.476
2013    5       30    18  38    5.91   394.6    9.2      37.521
2013    5       30    18  44    5.92   394.7    9.2      37.565
2013    5       30    18  50    5.93   394.7    9.2      37.608
2013    5       30    18  56    5.95   394.8    9.2      37.650
2013    5       30    19   1    5.96   394.9    9.2      37.692
2013    5       30    19   7    5.97   394.9    9.3      37.734
2013    5       30    19  13    5.99   395.0    9.3      37.775
2013    5       30    19  19    6.00   395.1    9.3      37.815
2013    5       30    19  25    6.01   395.1    9.3      37.856
2013    5       30    19  31    6.02   395.2    9.3      37.896
2013    5       30    19  37    6.04   395.3    9.3      37.936
2013    5       30    19  43    6.05   395.3    9.3      37.977
2013    5       30    19  49    6.06   395.4    9.3      38.017
2013    5       30    19  55    6.08   395.5    9.4      38.058
2013    5       30    20   1    6.09   395.5    9.4      38.099
2013    5       30    20   7    6.10   395.6    9.4      38.141
2013    5       30    20  13    6.12   395.7    9.4      38.184
2013    5       30    20  19    6.13   395.7    9.4      38.227
2013    5       30    20  25    6.15   395.8    9.4      38.271
2013    5       30    20  31    6.16   395.9    9.4      38.316
2013    5       30    20  36    6.17   396.0    9.5      38.362
2013    5       30    20  42    6.19   396.1    9.5      38.409
2013    5       30    20  48    6.20   396.1    9.5      38.457
2013    5       30    20  54    6.22   396.2    9.5      38.507
2013    5       30    21   0    6.23   396.3    9.5      38.558
2013    5       30    21   6    6.25   396.4    9.5      38.611
2013    5       30    21  12    6.26   396.5    9.6      38.665
2013    5       30    21  18    6.28   396.6    9.6      38.722
2013    5       30    21  24    6.29   396.7    9.6      38.781
2013    5       30    21  30    6.31   396.8    9.6      38.841
2013    5       30    21  36    6.33   396.9    9.7      38.903
2013    5       30    21  42    6.34   397.0    9.7      38.968
2013    5       30    21  48    6.36   397.1    9.7      39.037
2013    5       30    21  54    6.37   397.3    9.7      39.110
2013    5       30    21  59    6.39   397.4    9.8      39.185
2013    5       30    22   5    6.41   397.5    9.8      39.264
2013    5       30    22  11    6.42   397.7    9.8      39.346
2013    5       30    22  17    6.44   397.8    9.8      39.432
2013    5       30    22  23    6.46   398.0    9.9      39.524
2013    5       30    22  29    6.48   398.1    9.9      39.620
2013    5       30    22  35    6.49   398.3    9.9      39.719
2013    5       30    22  41    6.51   398.5   10.0      39.822
2013    5       30    22  47    6.53   398.6   10.0      39.927
2013    5       30    22  53    6.55   398.8   10.1      40.036
2013    5       30    22  59    6.56   399.0   10.1      40.148
2013    5       30    23   5    6.58   399.2   10.1      40.263
2013    5       30    23  11    6.60   399.4   10.2      40.381
2013    5       30    23  17    6.62   399.6   10.2      40.501
2013    5       30    23  23    6.63   399.8   10.3      40.626
2013    5       30    23  29    6.65   400.1   10.3      40.757
2013    5       30    23  35    6.67   400.3   10.3      40.893
2013    5       30    23  41    6.68   400.6   10.4      41.033
2013    5       30    23  46    6.70   400.8   10.4      41.174
2013    5       30    23  52    6.72   401.1   10.4      41.317
2013    5       30    23  58    6.73   401.4   10.5      41.461
2013    5       31     0   4    6.75   401.6   10.5      41.603
2013    5       31     0  10    6.76   401.9   10.5      41.743
2013    5       31     0  16    6.78   402.2   10.6      41.880
2013    5       31     0  22    6.79   402.4   10.6      42.015
2013    5       31     0  28    6.81   402.7   10.6      42.147
2013    5       31     0  34    6.82   403.0   10.6      42.275
2013    5       31     0  40    6.84   403.2   10.7      42.401
2013    5       31     0  46    6.85   403.5   10.7      42.524
2013    5       31     0  52    6.87   403.8   10.7      42.645
2013    5       31     0  58    6.88   404.0   10.7      42.762
2013    5       31     1   4    6.89   404.3   10.7      42.876
2013    5       31     1  10    6.91   404.5   10.8      42.988
2013    5       31     1  16    6.92   404.8   10.8      43.097
2013    5       31     1  22    6.94   405.1   10.8      43.204
2013    5       31     1  28    6.95   405.3   10.8      43.308
2013    5       31     1  33    6.96   405.6   10.8      43.411
2013    5       31     1  39    6.98   405.8   10.8      43.511
2013    5       31     1  45    6.99   406.1   10.8      43.609
2013    5       31     1  51    7.00   406.3   10.8      43.705
2013    5       31     1  57    7.02   406.6   10.9      43.799
2013    5       31     2   3    7.03   406.8   10.9      43.892
2013    5       31     2   9    7.04   407.1   10.9      43.982
2013    5       31     2  15    7.06   407.3   10.9      44.072
2013    5       31     2  21    7.07   407.6   10.9      44.159
2013    5       31     2  27    7.09   407.8   10.9      44.245
2013    5       31     2  33    7.10   408.0   10.9      44.329
2013    5       31     2  39    7.11   408.3   10.9      44.412
2013    5       31     2  45    7.13   408.5   10.9      44.493
2013    5       31     2  51    7.14   408.8   10.9      44.574
2013    5       31     2  57    7.15   409.0   10.9      44.652
2013    5       31     3   3    7.16   409.3   10.9      44.730
2013    5       31     3   8    7.18   409.5   10.9      44.807
2013    5       31     3  14    7.19   409.8   10.9      44.882
2013    5       31     3  20    7.20   410.0   10.9      44.957
2013    5       31     3  26    7.22   410.3   10.9      45.031
2013    5       31     3  32    7.23   410.5   10.9      45.104
2013    5       31     3  38    7.24   410.8   10.9      45.176
2013    5       31     3  44    7.26   411.0   10.9      45.248
2013    5       31     3  50    7.27   411.3   10.9      45.320
2013    5       31     3  56    7.28   411.5   10.9      45.391
2013    5       31     4   2    7.30   411.7   10.9      45.462
2013    5       31     4   8    7.31   412.0   10.9      45.534
2013    5       31     4  14    7.32   412.2   10.9      45.606
2013    5       31     4  20    7.34   412.5   10.9      45.679
2013    5       31     4  26    7.35   412.7   10.9      45.754
2013    5       31     4  32    7.36   412.9   10.9      45.829
2013    5       31     4  37    7.38   413.2   10.9      45.906
2013    5       31     4  43    7.39   413.4   10.9      45.985
2013    5       31     4  49    7.40   413.7   10.9      46.066
2013    5       31     4  55    7.42   413.9   10.9      46.149
2013    5       31     5   1    7.43   414.2   11.0      46.234
2013    5       31     5   7    7.45   414.5   11.0      46.320
2013    5       31     5  13    7.46   414.7   11.0      46.408
2013    5       31     5  19    7.48   415.0   11.0      46.496
2013    5       31     5  25    7.49   415.3   11.0      46.588
2013    5       31     5  31    7.50   415.5   11.0      46.682
2013    5       31     5  37    7.52   415.8   11.0      46.779
2013    5       31     5  43    7.53   416.1   11.0      46.878
2013    5       31     5  49    7.55   416.3   11.0      46.980
2013    5       31     5  55    7.56   416.6   11.0      47.085
2013    5       31     6   1    7.58   416.9   11.1      47.192
2013    5       31     6   6    7.59   417.2   11.1      47.303
2013    5       31     6  12    7.61   417.5   11.1      47.418
2013    5       31     6  18    7.62   417.7   11.1      47.536
2013    5       31     6  24    7.63   418.1   11.1      47.658
2013    5       31     6  30    7.65   418.4   11.1      47.784
2013    5       31     6  36    7.66   418.7   11.1      47.914
2013    5       31     6  42    7.68   419.0   11.2      48.048
2013    5       31     6  48    7.69   419.3   11.2      48.184
2013    5       31     6  54    7.70   419.7   11.2      48.321
2013    5       31     7   0    7.72   420.0   11.2      48.462
2013    5       31     7   6    7.73   420.4   11.2      48.606
2013    5       31     7  12    7.75   420.7   11.3      48.753
2013    5       31     7  18    7.76   421.1   11.3      48.901
2013    5       31     7  24    7.77   421.4   11.3      49.052
2013    5       31     7  30    7.79   421.8   11.3      49.206
2013    5       31     7  36    7.80   422.2   11.3      49.361
2013    5       31     7  42    7.82   422.6   11.3      49.515
2013    5       31     7  48    7.83   423.0   11.4      49.668
2013    5       31     7  54    7.84   423.4   11.4      49.818
2013    5       31     7  59    7.85   423.8   11.4      49.969
2013    5       31     8   5    7.87   424.1   11.4      50.119
2013    5       31     8  11    7.88   424.5   11.4      50.269
2013    5       31     8  17    7.89   424.9   11.4      50.420
2013    5       31     8  23    7.90   425.3   11.4      50.569
2013    5       31     8  29    7.92   425.7   11.5      50.716
2013    5       31     8  35    7.93   426.1   11.5      50.865
2013    5       31     8  41    7.94   426.5   11.5      51.019
2013    5       31     8  47    7.95   426.9   11.5      51.178
2013    5       31     8  53    7.97   427.3   11.5      51.341
2013    5       31     8  59    7.98   427.8   11.5      51.507
2013    5       31     9   5    7.99   428.2   11.5      51.677
2013    5       31     9  11    8.00   428.7   11.6      51.852
2013    5       31     9  17    8.02   429.1   11.6      52.028
2013    5       31     9  23    8.03   429.6   11.6      52.201
2013    5       31     9  29    8.04   430.0   11.6      52.371
2013    5       31     9  35    8.05   430.5   11.6      52.538
2013    5       31     9  40    8.07   431.0   11.6      52.702
2013    5       31     9  46    8.08   431.4   11.6      52.863
2013    5       31     9  52    8.09   431.9   11.6      53.022
2013    5       31     9  58    8.10   432.4   11.6      53.180
2013    5       31    10   4    8.11   432.9   11.6      53.333
2013    5       31    10  10    8.12   433.4   11.6      53.484
2013    5       31    10  16    8.13   433.9   11.6      53.633
2013    5       31    10  22    8.14   434.3   11.6      53.780
2013    5       31    10  28    8.15   434.8   11.5      53.925
2013    5       31    10  34    8.16   435.3   11.5      54.068
2013    5       31    10  40    8.17   435.8   11.5      54.211
2013    5       31    10  46    8.18   436.3   11.5      54.354
2013    5       31    10  52    8.19   436.8   11.5      54.495
2013    5       31    10  58    8.20   437.3   11.5      54.637
2013    5       31    11   3    8.21   437.8   11.5      54.779
2013    5       31    11   9    8.22   438.2   11.4      54.921
2013    5       31    11  15    8.23   438.7   11.4      55.064
2013    5       31    11  21    8.24   439.2   11.4      55.207
2013    5       31    11  27    8.25   439.6   11.4      55.350
2013    5       31    11  33    8.26   440.1   11.4      55.495
2013    5       31    11  39    8.27   440.6   11.4      55.640
2013    5       31    11  45    8.28   441.1   11.3      55.787
2013    5       31    11  51    8.29   441.5   11.3      55.934
2013    5       31    11  57    8.30   442.0   11.3      56.084
2013    5       31    12   3    8.31   442.5   11.3      56.237
2013    5       31    12   9    8.32   443.0   11.3      56.391
2013    5       31    12  15    8.32   443.5   11.2      56.547
2013    5       31    12  21    8.33   444.0   11.2      56.704
2013    5       31    12  27    8.34   444.5   11.2      56.862
2013    5       31    12  32    8.35   445.0   11.2      57.019
2013    5       31    12  38    8.36   445.6   11.2      57.175
2013    5       31    12  44    8.37   446.1   11.2      57.329
2013    5       31    12  50    8.38   446.6   11.1      57.481
2013    5       31    12  56    8.39   447.1   11.1      57.631
2013    5       31    13   2    8.40   447.6   11.1      57.778
2013    5       31    13   8    8.41   448.1   11.1      57.924
2013    5       31    13  14    8.42   448.7   11.1      58.068
2013    5       31    13  20    8.43   449.2   11.0      58.210
2013    5       31    13  26    8.44   449.8   11.0      58.351
2013    5       31    13  32    8.44   450.3   11.0      58.491
2013    5       31    13  38    8.45   450.9   11.0      58.630
2013    5       31    13  44    8.46   451.5   11.0      58.768
2013    5       31    13  50    8.47   452.0   10.9      58.900
2013    5       31    13  56    8.47   452.6   10.9      59.028
2013    5       31    14   2    8.48   453.1   10.9      59.148
2013    5       31    14   8    8.49   453.6   10.9      59.262
2013    5       31    14  13    8.49   454.1   10.9      59.367
2013    5       31    14  19    8.50   454.6   10.8      59.469
2013    5       31    14  25    8.50   455.2   10.8      59.574
2013    5       31    14  31    8.51   455.7   10.8      59.680
2013    5       31    14  37    8.52   456.2   10.8      59.787
2013    5       31    14  43    8.52   456.8   10.8      59.899
2013    5       31    14  49    8.53   457.4   10.8      60.021
2013    5       31    14  55    8.53   458.0   10.7      60.151
2013    5       31    15   1    8.54   458.6   10.7      60.279
2013    5       31    15   7    8.54   459.2   10.7      60.400
2013    5       31    15  13    8.55   459.8   10.7      60.515
2013    5       31    15  19    8.55   460.3   10.7      60.629
2013    5       31    15  25    8.55   460.8   10.7      60.742
2013    5       31    15  31    8.56   461.3   10.7      60.853
2013    5       31    15  37    8.56   461.7   10.7      60.959
2013    5       31    15  43    8.56   462.1   10.6      61.067
2013    5       31    15  49    8.57   462.6   10.6      61.185
2013    5       31    15  55    8.57   463.1   10.6      61.319
2013    5       31    16   0    8.57   463.5   10.6      61.465
2013    5       31    16   6    8.58   464.0   10.6      61.617
2013    5       31    16  12    8.58   464.5   10.6      61.774
2013    5       31    16  18    8.59   465.0   10.6      61.940
2013    5       31    16  24    8.60   465.4   10.6      62.118
2013    5       31    16  30    8.60   465.9   10.6      62.305
2013    5       31    16  36    8.61   466.4   10.6      62.494
2013    5       31    16  42    8.61   466.9   10.6      62.689
2013    5       31    16  48    8.62   467.4   10.6      62.889
2013    5       31    16  54    8.63   468.0   10.6      63.106
2013    5       31    17   0    8.63   468.6   10.6      63.336
2013    5       31    17   6    8.64   469.2   10.6      63.576
2013    5       31    17  12    8.64   469.9   10.6      63.822
2013    5       31    17  18    8.65   470.6   10.6      64.073
2013    5       31    17  24    8.66   471.2   10.6      64.325
2013    5       31    17  30    8.66   471.9   10.6      64.578
2013    5       31    17  35    8.67   472.6   10.6      64.822
2013    5       31    17  41    8.67   473.3   10.6      65.059
2013    5       31    17  47    8.68   473.9   10.6      65.290
2013    5       31    17  53    8.68   474.6   10.6      65.516
2013    5       31    17  59    8.69   475.3   10.5      65.738
2013    5       31    18   5    8.69   475.9   10.5      65.958
2013    5       31    18  11    8.69   476.6   10.5      66.176
2013    5       31    18  17    8.70   477.3   10.5      66.391
2013    5       31    18  23    8.70   478.0   10.5      66.607
2013    5       31    18  29    8.71   478.7   10.4      66.822
2013    5       31    18  35    8.71   479.4   10.4      67.035
2013    5       31    18  41    8.71   480.1   10.4      67.249
2013    5       31    18  47    8.72   480.8   10.4      67.463
2013    5       31    18  53    8.72   481.6   10.4      67.678
2013    5       31    18  58    8.73   482.3   10.3      67.893
2013    5       31    19   4    8.73   483.0   10.3      68.107
2013    5       31    19  10    8.73   483.8   10.3      68.319
2013    5       31    19  16    8.74   484.6   10.3      68.529
2013    5       31    19  22    8.74   485.3   10.2      68.736
2013    5       31    19  28    8.74   486.1   10.2      68.944
2013    5       31    19  34    8.74   486.9   10.2      69.146
2013    5       31    19  40    8.74   487.7   10.1      69.342
2013    5       31    19  46    8.74   488.5   10.1      69.528
2013    5       31    19  52    8.74   489.3   10.1      69.711
2013    5       31    19  58    8.74   490.2   10.0      69.892
2013    5       31    20   4    8.74   491.0   10.0      70.074
2013    5       31    20  10    8.74   491.8   10.0      70.252
2013    5       31    20  16    8.74   492.7    9.9      70.424
2013    5       31    20  22    8.74   493.5    9.9      70.593
2013    5       31    20  27    8.73   494.4    9.8      70.761
2013    5       31    20  33    8.73   495.3    9.8      70.926
2013    5       31    20  39    8.72   496.2    9.7      71.088
2013    5       31    20  45    8.72   497.1    9.7      71.246
2013    5       31    20  51    8.71   498.1    9.6      71.397
2013    5       31    20  57    8.70   499.0    9.6      71.533
2013    5       31    21   3    8.70   499.9    9.5      71.661
2013    5       31    21   9    8.69   500.8    9.5      71.781
2013    5       31    21  15    8.68   501.7    9.4      71.889
2013    5       31    21  21    8.67   502.6    9.4      71.981
2013    5       31    21  27    8.65   503.5    9.3      72.059
2013    5       31    21  33    8.64   504.3    9.3      72.121
2013    5       31    21  39    8.63   505.2    9.2      72.169
2013    5       31    21  45    8.62   506.0    9.1      72.211
2013    5       31    21  51    8.60   506.8    9.1      72.247
2013    5       31    21  57    8.59   507.7    9.0      72.283
2013    5       31    22   3    8.58   508.5    9.0      72.320
2013    5       31    22   9    8.56   509.5    8.9      72.364
2013    5       31    22  15    8.55   510.4    8.9      72.412
2013    5       31    22  20    8.54   511.3    8.8      72.455
2013    5       31    22  26    8.52   512.2    8.7      72.488
2013    5       31    22  32    8.51   513.0    8.7      72.513
2013    5       31    22  38    8.49   513.8    8.6      72.531
2013    5       31    22  44    8.48   514.6    8.6      72.546
2013    5       31    22  50    8.46   515.3    8.5      72.552
2013    5       31    22  56    8.45   515.9    8.5      72.552
2013    5       31    23   2    8.43   516.6    8.4      72.555
2013    5       31    23   8    8.42   517.2    8.4      72.563
2013    5       31    23  14    8.40   517.8    8.3      72.581
2013    5       31    23  20    8.39   518.4    8.3      72.611
2013    5       31    23  26    8.38   519.0    8.3      72.644
2013    5       31    23  32    8.37   519.6    8.2      72.679
2013    5       31    23  38    8.35   520.1    8.2      72.720
2013    5       31    23  44    8.34   520.6    8.2      72.768
2013    5       31    23  50    8.33   521.1    8.1      72.828
2013    5       31    23  55    8.32   521.6    8.1      72.896
2013    6        1     0   1    8.31   522.2    8.1      72.972
2013    6        1     0   7    8.30   522.7    8.0      73.055
2013    6        1     0  13    8.29   523.2    8.0      73.161
2013    6        1     0  19    8.28   523.8    8.0      73.286
2013    6        1     0  25    8.27   524.5    8.0      73.427
2013    6        1     0  31    8.26   525.1    7.9      73.579
2013    6        1     0  37    8.25   525.8    7.9      73.739
2013    6        1     0  43    8.24   526.4    7.9      73.903
2013    6        1     0  49    8.23   527.1    7.9      74.074
2013    6        1     0  55    8.22   527.8    7.8      74.237
2013    6        1     1   1    8.21   528.4    7.8      74.391
2013    6        1     1   7    8.20   529.0    7.8      74.537
2013    6        1     1  13    8.19   529.7    7.8      74.678
2013    6        1     1  19    8.18   530.3    7.7      74.813
2013    6        1     1  25    8.17   530.9    7.7      74.944
2013    6        1     1  30    8.16   531.5    7.7      75.072
2013    6        1     1  36    8.15   532.2    7.7      75.195
2013    6        1     1  42    8.14   532.9    7.6      75.317
2013    6        1     1  48    8.12   533.6    7.6      75.436
2013    6        1     1  54    8.11   534.3    7.6      75.553
2013    6        1     2   0    8.10   535.0    7.6      75.670
2013    6        1     2   6    8.09   535.7    7.5      75.787
2013    6        1     2  12    8.08   536.5    7.5      75.905
2013    6        1     2  18    8.07   537.2    7.5      76.024
2013    6        1     2  24    8.06   538.0    7.5      76.143
2013    6        1     2  30    8.04   538.8    7.4      76.260
2013    6        1     2  36    8.03   539.6    7.4      76.373
2013    6        1     2  42    8.02   540.4    7.4      76.482
2013    6        1     2  48    8.00   541.2    7.3      76.590
2013    6        1     2  53    7.99   542.1    7.3      76.696
2013    6        1     2  59    7.98   542.9    7.3      76.798
2013    6        1     3   5    7.96   543.8    7.2      76.890
2013    6        1     3  11    7.94   544.7    7.2      76.973
2013    6        1     3  17    7.93   545.6    7.2      77.051
2013    6        1     3  23    7.91   546.5    7.1      77.128
2013    6        1     3  29    7.89   547.5    7.1      77.204
2013    6        1     3  35    7.88   548.4    7.1      77.277
2013    6        1     3  41    7.86   549.3    7.0      77.346
2013    6        1     3  47    7.84   550.3    7.0      77.417
2013    6        1     3  53    7.82   551.3    6.9      77.487
2013    6        1     3  59    7.80   552.3    6.9      77.555
2013    6        1     4   5    7.78   553.2    6.9      77.615
2013    6        1     4  11    7.76   554.3    6.8      77.672
2013    6        1     4  17    7.74   555.3    6.8      77.722
2013    6        1     4  23    7.72   556.3    6.7      77.760
2013    6        1     4  29    7.70   557.3    6.7      77.772
2013    6        1     4  34    7.68   558.3    6.6      77.763
2013    6        1     4  40    7.65   559.2    6.6      77.735
2013    6        1     4  46    7.63   560.2    6.5      77.691
2013    6        1     4  52    7.60   561.0    6.5      77.630
2013    6        1     4  58    7.58   561.9    6.4      77.547
2013    6        1     5   4    7.56   562.7    6.4      77.449
2013    6        1     5  10    7.53   563.5    6.3      77.353
2013    6        1     5  16    7.51   564.3    6.3      77.258
2013    6        1     5  22    7.49   565.1    6.2      77.164
2013    6        1     5  28    7.46   565.9    6.2      77.071
2013    6        1     5  34    7.44   566.6    6.1      76.978
2013    6        1     5  40    7.42   567.4    6.1      76.882
2013    6        1     5  46    7.40   568.1    6.0      76.785
2013    6        1     5  52    7.37   568.9    6.0      76.690
2013    6        1     5  58    7.35   569.6    6.0      76.598
2013    6        1     6   4    7.33   570.3    5.9      76.508
2013    6        1     6  10    7.31   571.1    5.9      76.419
2013    6        1     6  16    7.29   571.8    5.9      76.331
2013    6        1     6  21    7.27   572.5    5.8      76.244
2013    6        1     6  27    7.25   573.1    5.8      76.159
2013    6        1     6  33    7.23   573.8    5.7      76.074
2013    6        1     6  39    7.21   574.5    5.7      75.991
2013    6        1     6  45    7.19   575.1    5.7      75.909
2013    6        1     6  51    7.17   575.8    5.7      75.829
2013    6        1     6  57    7.15   576.4    5.6      75.749
2013    6        1     7   3    7.13   577.0    5.6      75.672
2013    6        1     7   9    7.11   577.6    5.6      75.595
2013    6        1     7  15    7.09   578.1    5.5      75.521
2013    6        1     7  21    7.07   578.7    5.5      75.449
2013    6        1     7  27    7.05   579.3    5.5      75.378
2013    6        1     7  33    7.03   579.8    5.4      75.309
2013    6        1     7  39    7.01   580.3    5.4      75.243
2013    6        1     7  45    6.99   580.9    5.4      75.178
2013    6        1     7  51    6.97   581.4    5.4      75.115
2013    6        1     7  56    6.95   581.9    5.3      75.053
2013    6        1     8   2    6.93   582.4    5.3      74.993
2013    6        1     8   8    6.91   582.9    5.3      74.934
2013    6        1     8  14    6.90   583.4    5.3      74.876
2013    6        1     8  20    6.88   583.8    5.3      74.820
2013    6        1     8  26    6.86   584.3    5.2      74.765
2013    6        1     8  32    6.84   584.8    5.2      74.710
2013    6        1     8  38    6.82   585.3    5.2      74.657
2013    6        1     8  44    6.80   585.7    5.2      74.605
2013    6        1     8  50    6.79   586.2    5.1      74.554
2013    6        1     8  56    6.77   586.7    5.1      74.504
2013    6        1     9   2    6.75   587.1    5.1      74.456
2013    6        1     9   8    6.73   587.6    5.1      74.407
2013    6        1     9  14    6.71   588.1    5.1      74.359
2013    6        1     9  20    6.70   588.6    5.0      74.310
2013    6        1     9  25    6.68   589.0    5.0      74.261
2013    6        1     9  31    6.66   589.5    5.0      74.212
2013    6        1     9  37    6.64   590.0    5.0      74.163
2013    6        1     9  43    6.62   590.4    5.0      74.115
2013    6        1     9  49    6.60   590.9    4.9      74.065
2013    6        1     9  55    6.59   591.4    4.9      74.014
2013    6        1    10   1    6.57   591.8    4.9      73.963
2013    6        1    10   7    6.55   592.2    4.9      73.909
2013    6        1    10  13    6.53   592.7    4.9      73.855
2013    6        1    10  19    6.51   593.1    4.9      73.800
2013    6        1    10  25    6.50   593.5    4.8      73.748
2013    6        1    10  31    6.48   593.9    4.8      73.696
2013    6        1    10  37    6.46   594.3    4.8      73.644
2013    6        1    10  43    6.45   594.7    4.8      73.593
2013    6        1    10  48    6.43   595.1    4.8      73.542
2013    6        1    10  54    6.41   595.5    4.8      73.492
2013    6        1    11   0    6.39   595.9    4.7      73.440
2013    6        1    11   6    6.38   596.3    4.7      73.386
2013    6        1    11  12    6.36   596.6    4.7      73.330
2013    6        1    11  18    6.34   597.0    4.7      73.273
2013    6        1    11  24    6.33   597.4    4.7      73.216
2013    6        1    11  30    6.31   597.8    4.7      73.154
2013    6        1    11  36    6.29   598.2    4.6      73.089
2013    6        1    11  42    6.28   598.6    4.6      73.019
2013    6        1    11  48    6.26   598.9    4.6      72.944
2013    6        1    11  54    6.24   599.3    4.6      72.865
2013    6        1    12   0    6.23   599.6    4.6      72.783
2013    6        1    12   6    6.21   600.0    4.6      72.697
2013    6        1    12  12    6.20   600.3    4.5      72.611
2013    6        1    12  18    6.18   600.6    4.5      72.525
2013    6        1    12  24    6.16   601.0    4.5      72.440
2013    6        1    12  30    6.15   601.3    4.5      72.355
2013    6        1    12  35    6.13   601.6    4.5      72.269
2013    6        1    12  41    6.12   601.9    4.5      72.183
2013    6        1    12  47    6.10   602.3    4.5      72.098
2013    6        1    12  53    6.09   602.6    4.4      72.013
2013    6        1    12  59    6.07   602.9    4.4      71.930
2013    6        1    13   5    6.06   603.2    4.4      71.850
2013    6        1    13  11    6.05   603.5    4.4      71.771
2013    6        1    13  17    6.03   603.8    4.4      71.692
2013    6        1    13  23    6.02   604.0    4.4      71.613
2013    6        1    13  29    6.00   604.3    4.4      71.535
2013    6        1    13  35    5.99   604.6    4.3      71.459
2013    6        1    13  41    5.98   604.9    4.3      71.383
2013    6        1    13  47    5.96   605.2    4.3      71.310
2013    6        1    13  53    5.95   605.6    4.3      71.240
2013    6        1    13  59    5.94   605.9    4.3      71.173
2013    6        1    14   5    5.92   606.3    4.3      71.106
2013    6        1    14  11    5.91   606.6    4.3      71.040
2013    6        1    14  17    5.90   607.0    4.3      70.973
2013    6        1    14  22    5.88   607.3    4.2      70.904
2013    6        1    14  28    5.87   607.6    4.2      70.833
2013    6        1    14  34    5.86   607.9    4.2      70.762
2013    6        1    14  40    5.85   608.2    4.2      70.691
2013    6        1    14  46    5.83   608.5    4.2      70.621
2013    6        1    14  52    5.82   608.8    4.2      70.551
2013    6        1    14  58    5.81   609.1    4.2      70.483
2013    6        1    15   4    5.80   609.4    4.2      70.416
2013    6        1    15  10    5.78   609.6    4.1      70.351
2013    6        1    15  16    5.77   609.9    4.1      70.286
2013    6        1    15  22    5.76   610.1    4.1      70.223
2013    6        1    15  28    5.75   610.3    4.1      70.161
2013    6        1    15  34    5.74   610.6    4.1      70.102
2013    6        1    15  40    5.73   610.8    4.1      70.045
2013    6        1    15  46    5.71   611.0    4.1      69.990
2013    6        1    15  51    5.70   611.3    4.1      69.936
2013    6        1    15  57    5.69   611.5    4.1      69.885
2013    6        1    16   3    5.68   611.8    4.1      69.837
2013    6        1    16   9    5.67   612.0    4.0      69.789
2013    6        1    16  15    5.66   612.2    4.0      69.744
2013    6        1    16  21    5.65   612.5    4.0      69.699
2013    6        1    16  27    5.64   612.7    4.0      69.656
2013    6        1    16  33    5.63   613.0    4.0      69.613
2013    6        1    16  39    5.62   613.2    4.0      69.570
2013    6        1    16  45    5.61   613.5    4.0      69.525
2013    6        1    16  51    5.59   613.8    4.0      69.479
2013    6        1    16  57    5.58   614.0    4.0      69.432
2013    6        1    17   3    5.57   614.3    4.0      69.384
2013    6        1    17   9    5.56   614.6    4.0      69.335
2013    6        1    17  14    5.55   614.8    3.9      69.282
2013    6        1    17  20    5.54   615.1    3.9      69.228
2013    6        1    17  26    5.53   615.3    3.9      69.172
2013    6        1    17  32    5.52   615.5    3.9      69.113
2013    6        1    17  38    5.51   615.7    3.9      69.052
2013    6        1    17  44    5.50   615.9    3.9      68.993
2013    6        1    17  50    5.49   616.1    3.9      68.935
2013    6        1    17  56    5.48   616.3    3.9      68.879
2013    6        1    18   2    5.47   616.5    3.9      68.825
2013    6        1    18   8    5.46   616.7    3.9      68.773
2013    6        1    18  14    5.45   616.8    3.9      68.724
2013    6        1    18  20    5.44   617.0    3.8      68.676
2013    6        1    18  26    5.43   617.2    3.8      68.627
2013    6        1    18  32    5.43   617.3    3.8      68.579
2013    6        1    18  38    5.42   617.5    3.8      68.530
2013    6        1    18  44    5.41   617.7    3.8      68.483
2013    6        1    18  49    5.40   617.9    3.8      68.437
2013    6        1    18  55    5.39   618.1    3.8      68.391
2013    6        1    19   1    5.38   618.3    3.8      68.344
2013    6        1    19   7    5.37   618.5    3.8      68.297
2013    6        1    19  13    5.36   618.7    3.8      68.250
2013    6        1    19  19    5.35   618.8    3.8      68.202
2013    6        1    19  25    5.35   619.0    3.8      68.152
2013    6        1    19  31    5.34   619.2    3.8      68.102
2013    6        1    19  37    5.33   619.4    3.7      68.052
2013    6        1    19  43    5.32   619.6    3.7      68.003
2013    6        1    19  49    5.31   619.8    3.7      67.950
2013    6        1    19  55    5.30   620.0    3.7      67.895
2013    6        1    20   1    5.29   620.1    3.7      67.838
2013    6        1    20   7    5.28   620.3    3.7      67.779
2013    6        1    20  13    5.27   620.5    3.7      67.719
2013    6        1    20  19    5.27   620.6    3.7      67.658
2013    6        1    20  25    5.26   620.8    3.7      67.599
2013    6        1    20  31    5.25   620.9    3.7      67.541
2013    6        1    20  37    5.24   621.0    3.7      67.483
2013    6        1    20  42    5.23   621.2    3.7      67.425
2013    6        1    20  48    5.22   621.3    3.7      67.369
2013    6        1    20  54    5.22   621.4    3.6      67.314
2013    6        1    21   0    5.21   621.5    3.6      67.260
2013    6        1    21   6    5.20   621.7    3.6      67.210
2013    6        1    21  12    5.19   621.8    3.6      67.164
2013    6        1    21  18    5.18   622.0    3.6      67.121
2013    6        1    21  24    5.18   622.2    3.6      67.079
2013    6        1    21  30    5.17   622.4    3.6      67.039
2013    6        1    21  36    5.16   622.5    3.6      66.996
2013    6        1    21  42    5.15   622.7    3.6      66.951
2013    6        1    21  48    5.14   622.9    3.6      66.903
2013    6        1    21  54    5.14   623.0    3.6      66.852
2013    6        1    22   0    5.13   623.2    3.6      66.801
2013    6        1    22   6    5.12   623.3    3.6      66.748
2013    6        1    22  12    5.11   623.5    3.6      66.694
2013    6        1    22  17    5.10   623.6    3.6      66.640
2013    6        1    22  23    5.10   623.8    3.6      66.585
2013    6        1    22  29    5.09   623.9    3.5      66.529
2013    6        1    22  35    5.08   624.0    3.5      66.473
2013    6        1    22  41    5.07   624.1    3.5      66.416
2013    6        1    22  47    5.06   624.2    3.5      66.360
2013    6        1    22  53    5.06   624.3    3.5      66.304
2013    6        1    22  59    5.05   624.4    3.5      66.248
2013    6        1    23   5    5.04   624.6    3.5      66.194
2013    6        1    23  11    5.03   624.7    3.5      66.140
2013    6        1    23  17    5.03   624.8    3.5      66.088
2013    6        1    23  23    5.02   624.9    3.5      66.037
2013    6        1    23  29    5.01   625.0    3.5      65.987
2013    6        1    23  35    5.00   625.1    3.5      65.937
2013    6        1    23  41    5.00   625.2    3.5      65.888
2013    6        1    23  46    4.99   625.3    3.5      65.839
2013    6        1    23  52    4.98   625.4    3.5      65.790
2013    6        1    23  58    4.97   625.5    3.5      65.742
2013    6        2     0   4    4.97   625.6    3.5      65.693
2013    6        2     0  10    4.96   625.7    3.4      65.644
2013    6        2     0  16    4.95   625.8    3.4      65.594
2013    6        2     0  22    4.95   625.8    3.4      65.545
2013    6        2     0  28    4.94   625.9    3.4      65.495
2013    6        2     0  34    4.93   626.0    3.4      65.445
2013    6        2     0  40    4.93   626.1    3.4      65.395
2013    6        2     0  46    4.92   626.2    3.4      65.345
2013    6        2     0  52    4.91   626.2    3.4      65.296
2013    6        2     0  58    4.91   626.3    3.4      65.246
2013    6        2     1   4    4.90   626.4    3.4      65.197
2013    6        2     1   9    4.89   626.4    3.4      65.147
2013    6        2     1  15    4.89   626.5    3.4      65.099
2013    6        2     1  21    4.88   626.5    3.4      65.051
2013    6        2     1  27    4.87   626.6    3.4      65.004
2013    6        2     1  33    4.87   626.6    3.4      64.957
2013    6        2     1  39    4.86   626.7    3.4      64.911
2013    6        2     1  45    4.85   626.7    3.4      64.865
2013    6        2     1  51    4.85   626.8    3.4      64.820
2013    6        2     1  57    4.84   626.8    3.4      64.775
2013    6        2     2   3    4.83   626.9    3.4      64.730
2013    6        2     2   9    4.83   627.0    3.3      64.685
2013    6        2     2  15    4.82   627.0    3.3      64.641
2013    6        2     2  21    4.82   627.1    3.3      64.597
2013    6        2     2  27    4.81   627.1    3.3      64.553
2013    6        2     2  33    4.80   627.2    3.3      64.509
2013    6        2     2  39    4.80   627.2    3.3      64.465
2013    6        2     2  45    4.79   627.3    3.3      64.421
2013    6        2     2  51    4.79   627.3    3.3      64.378
2013    6        2     2  56    4.78   627.4    3.3      64.334
2013    6        2     3   2    4.77   627.4    3.3      64.291
2013    6        2     3   8    4.77   627.4    3.3      64.247
2013    6        2     3  14    4.76   627.5    3.3      64.204
2013    6        2     3  20    4.76   627.5    3.3      64.161
2013    6        2     3  26    4.75   627.6    3.3      64.118
2013    6        2     3  32    4.74   627.6    3.3      64.075
2013    6        2     3  38    4.74   627.6    3.3      64.032
2013    6        2     3  44    4.73   627.7    3.3      63.989
2013    6        2     3  50    4.73   627.7    3.3      63.947
2013    6        2     3  56    4.72   627.8    3.3      63.904
2013    6        2     4   2    4.71   627.8    3.3      63.861
2013    6        2     4   8    4.71   627.8    3.3      63.819
2013    6        2     4  14    4.70   627.9    3.3      63.776
2013    6        2     4  20    4.70   627.9    3.3      63.733
2013    6        2     4  26    4.69   627.9    3.3      63.689
2013    6        2     4  32    4.69   627.9    3.3      63.645
2013    6        2     4  37    4.68   628.0    3.2      63.601
2013    6        2     4  43    4.67   628.0    3.2      63.557
2013    6        2     4  49    4.67   628.0    3.2      63.512
2013    6        2     4  55    4.66   628.0    3.2      63.467
2013    6        2     5   1    4.66   628.0    3.2      63.422
2013    6        2     5   7    4.65   628.0    3.2      63.377
2013    6        2     5  13    4.64   628.1    3.2      63.332
2013    6        2     5  19    4.64   628.1    3.2      63.286
2013    6        2     5  25    4.63   628.1    3.2      63.241
2013    6        2     5  31    4.63   628.1    3.2      63.196
2013    6        2     5  37    4.62   628.1    3.2      63.151
2013    6        2     5  43    4.61   628.1    3.2      63.105
2013    6        2     5  49    4.61   628.1    3.2      63.059
2013    6        2     5  55    4.60   628.1    3.2      63.013
2013    6        2     6   1    4.60   628.1    3.2      62.967
2013    6        2     6   7    4.59   628.1    3.2      62.920
2013    6        2     6  12    4.59   628.0    3.2      62.872
2013    6        2     6  18    4.58   628.0    3.2      62.824
2013    6        2     6  24    4.58   628.0    3.2      62.776
2013    6        2     6  30    4.57   628.0    3.2      62.727
2013    6        2     6  36    4.56   628.0    3.2      62.678
2013    6        2     6  42    4.56   628.0    3.2      62.628
2013    6        2     6  48    4.55   628.0    3.2      62.578
2013    6        2     6  54    4.55   627.9    3.2      62.527
2013    6        2     7   0    4.54   627.9    3.2      62.476
2013    6        2     7   6    4.54   627.9    3.2      62.424
2013    6        2     7  12    4.53   627.9    3.2      62.372
2013    6        2     7  18    4.53   627.9    3.2      62.320
2013    6        2     7  24    4.52   627.8    3.2      62.268
2013    6        2     7  30    4.52   627.8    3.2      62.215
2013    6        2     7  35    4.51   627.8    3.2      62.162
2013    6        2     7  41    4.51   627.8    3.1      62.109
2013    6        2     7  47    4.50   627.7    3.1      62.056
2013    6        2     7  53    4.50   627.7    3.1      62.002
2013    6        2     7  59    4.49   627.7    3.1      61.948
2013    6        2     8   5    4.49   627.6    3.1      61.894
2013    6        2     8  11    4.48   627.6    3.1      61.840
2013    6        2     8  17    4.48   627.6    3.1      61.785
2013    6        2     8  23    4.47   627.5    3.1      61.730
2013    6        2     8  29    4.47   627.5    3.1      61.675
2013    6        2     8  35    4.46   627.5    3.1      61.620
2013    6        2     8  41    4.46   627.4    3.1      61.565
2013    6        2     8  47    4.45   627.4    3.1      61.510
2013    6        2     8  53    4.45   627.4    3.1      61.455
2013    6        2     8  59    4.44   627.3    3.1      61.400
2013    6        2     9   5    4.44   627.3    3.1      61.345
2013    6        2     9  10    4.43   627.2    3.1      61.290
2013    6        2     9  16    4.43   627.2    3.1      61.236
2013    6        2     9  22    4.42   627.1    3.1      61.181
2013    6        2     9  28    4.42   627.1    3.1      61.128
2013    6        2     9  34    4.41   627.0    3.1      61.074
2013    6        2     9  40    4.41   627.0    3.1      61.021
2013    6        2     9  46    4.40   626.9    3.1      60.969
2013    6        2     9  52    4.40   626.9    3.1      60.918
2013    6        2     9  58    4.39   626.8    3.1      60.867
2013    6        2    10   4    4.39   626.8    3.1      60.817
2013    6        2    10  10    4.38   626.7    3.1      60.768
2013    6        2    10  16    4.38   626.7    3.1      60.720
2013    6        2    10  22    4.37   626.6    3.1      60.673
2013    6        2    10  28    4.37   626.5    3.0      60.626
2013    6        2    10  34    4.37   626.5    3.0      60.581
2013    6        2    10  40    4.36   626.4    3.0      60.537
2013    6        2    10  46    4.36   626.4    3.0      60.494
2013    6        2    10  52    4.35   626.3    3.0      60.452
2013    6        2    10  57    4.35   626.2    3.0      60.411
2013    6        2    11   3    4.34   626.2    3.0      60.371
2013    6        2    11   9    4.34   626.1    3.0      60.331
2013    6        2    11  15    4.33   626.1    3.0      60.293
2013    6        2    11  21    4.33   626.0    3.0      60.256
2013    6        2    11  27    4.32   626.0    3.0      60.218
2013    6        2    11  33    4.32   625.9    3.0      60.180
2013    6        2    11  39    4.31   625.8    3.0      60.142
2013    6        2    11  45    4.31   625.8    3.0      60.103
2013    6        2    11  51    4.31   625.7    3.0      60.063
2013    6        2    11  57    4.30   625.6    3.0      60.023
2013    6        2    12   3    4.30   625.5    3.0      59.982
2013    6        2    12   9    4.29   625.4    3.0      59.941
2013    6        2    12  15    4.29   625.4    3.0      59.899
2013    6        2    12  21    4.28   625.3    3.0      59.857
2013    6        2    12  27    4.28   625.2    3.0      59.815
2013    6        2    12  33    4.27   625.1    3.0      59.773
2013    6        2    12  38    4.27   625.0    3.0      59.730
2013    6        2    12  44    4.26   624.9    3.0      59.688
2013    6        2    12  50    4.26   624.8    3.0      59.646
2013    6        2    12  56    4.25   624.7    3.0      59.604
2013    6        2    13   2    4.25   624.6    3.0      59.561
2013    6        2    13   8    4.25   624.5    3.0      59.517
2013    6        2    13  14    4.24   624.4    3.0      59.473
2013    6        2    13  20    4.24   624.3    3.0      59.427
2013    6        2    13  26    4.23   624.2    3.0      59.381
2013    6        2    13  32    4.23   624.1    3.0      59.334
2013    6        2    13  38    4.22   624.0    3.0      59.286
2013    6        2    13  44    4.22   623.9    3.0      59.237
2013    6        2    13  50    4.21   623.8    3.0      59.187
2013    6        2    13  56    4.21   623.7    3.0      59.136
2013    6        2    14   2    4.21   623.6    3.0      59.085
2013    6        2    14   7    4.20   623.5    3.0      59.033
2013    6        2    14  13    4.20   623.4    3.0      58.980
2013    6        2    14  19    4.19   623.3    3.0      58.926
2013    6        2    14  25    4.19   623.2    3.0      58.872
2013    6        2    14  31    4.18   623.1    3.0      58.817
2013    6        2    14  37    4.18   622.9    3.0      58.761
2013    6        2    14  43    4.18   622.8    3.0      58.706
2013    6        2    14  49    4.17   622.7    3.0      58.649
2013    6        2    14  55    4.17   622.6    3.0      58.592
2013    6        2    15   1    4.16   622.5    3.0      58.534
2013    6        2    15   7    4.16   622.4    3.0      58.477
2013    6        2    15  13    4.16   622.2    3.0      58.418
2013    6        2    15  19    4.15   622.1    3.0      58.359
2013    6        2    15  25    4.15   622.0    3.0      58.300
2013    6        2    15  30    4.14   621.9    3.0      58.240
2013    6        2    15  36    4.14   621.8    3.0      58.180
2013    6        2    15  42    4.14   621.6    3.0      58.120
2013    6        2    15  48    4.13   621.5    3.0      58.059
2013    6        2    15  54    4.13   621.4    2.9      57.998
2013    6        2    16   0    4.12   621.3    2.9      57.936
2013    6        2    16   6    4.12   621.1    2.9      57.874
2013    6        2    16  12    4.12   621.0    2.9      57.812
2013    6        2    16  18    4.11   620.9    2.9      57.750
2013    6        2    16  24    4.11   620.8    2.9      57.687
2013    6        2    16  30    4.11   620.6    2.9      57.625
2013    6        2    16  36    4.10   620.5    2.9      57.562
2013    6        2    16  42    4.10   620.4    2.9      57.500
2013    6        2    16  48    4.09   620.3    2.9      57.437
2013    6        2    16  54    4.09   620.1    2.9      57.375
2013    6        2    17   0    4.09   620.0    2.9      57.312
2013    6        2    17   6    4.08   619.9    2.9      57.250
2013    6        2    17  11    4.08   619.7    2.9      57.189
2013    6        2    17  17    4.07   619.6    2.9      57.128
2013    6        2    17  23    4.07   619.5    2.9      57.067
2013    6        2    17  29    4.07   619.3    2.9      57.007
2013    6        2    17  35    4.06   619.2    2.9      56.948
2013    6        2    17  41    4.06   619.1    2.9      56.889
2013    6        2    17  47    4.05   618.9    2.9      56.832
2013    6        2    17  53    4.05   618.8    2.9      56.775
2013    6        2    17  59    4.05   618.6    2.9      56.719
2013    6        2    18   5    4.04   618.5    2.9      56.664
2013    6        2    18  11    4.04   618.4    2.9      56.610
2013    6        2    18  17    4.03   618.2    2.9      56.557
2013    6        2    18  23    4.03   618.1    2.9      56.504
2013    6        2    18  29    4.03   617.9    2.9      56.453
2013    6        2    18  35    4.02   617.8    2.9      56.402
2013    6        2    18  41    4.02   617.7    2.9      56.352
2013    6        2    18  47    4.01   617.5    2.9      56.303
2013    6        2    18  53    4.01   617.4    2.9      56.254
2013    6        2    18  58    4.01   617.2    2.9      56.205
2013    6        2    19   4    4.00   617.1    2.9      56.156
2013    6        2    19  10    4.00   616.9    2.9      56.107
2013    6        2    19  16    3.99   616.8    2.9      56.059
2013    6        2    19  22    3.99   616.6    2.9      56.011
2013    6        2    19  28    3.99   616.4    2.9      55.964
2013    6        2    19  34    3.98   616.3    2.9      55.917
2013    6        2    19  40    3.98   616.1    2.9      55.871
2013    6        2    19  46    3.97   615.9    2.9      55.826
2013    6        2    19  52    3.97   615.8    2.9      55.782
2013    6        2    19  58    3.97   615.6    2.9      55.739
2013    6        2    20   4    3.96   615.4    2.9      55.697
2013    6        2    20  10    3.96   615.3    2.9      55.656
2013    6        2    20  16    3.96   615.1    2.9      55.616
2013    6        2    20  22    3.95   614.9    2.9      55.576
2013    6        2    20  28    3.95   614.7    2.9      55.536
2013    6        2    20  33    3.95   614.6    2.9      55.496
2013    6        2    20  39    3.94   614.4    2.9      55.456
2013    6        2    20  45    3.94   614.2    2.9      55.415
2013    6        2    20  51    3.93   614.0    2.9      55.373
2013    6        2    20  57    3.93   613.9    2.9      55.331
2013    6        2    21   3    3.93   613.7    2.9      55.288
2013    6        2    21   9    3.92   613.5    2.9      55.244
2013    6        2    21  15    3.92   613.3    2.9      55.200
2013    6        2    21  21    3.92   613.2    2.9      55.154
2013    6        2    21  27    3.91   613.0    2.9      55.108
2013    6        2    21  33    3.91   612.8    2.9      55.062
2013    6        2    21  39    3.91   612.6    2.9      55.015
2013    6        2    21  45    3.90   612.4    2.9      54.967
2013    6        2    21  51    3.90   612.3    2.9      54.919
2013    6        2    21  56    3.90   612.1    2.9      54.870
2013    6        2    22   2    3.89   611.9    2.9      54.820
2013    6        2    22   8    3.89   611.7    2.9      54.768
2013    6        2    22  14    3.89   611.5    2.9      54.716
2013    6        2    22  20    3.88   611.4    2.9      54.663
2013    6        2    22  26    3.88   611.2    2.9      54.609
2013    6        2    22  32    3.88   611.0    2.9      54.553
2013    6        2    22  38    3.87   610.8    2.9      54.497
2013    6        2    22  44    3.87   610.6    2.9      54.440
2013    6        2    22  50    3.87   610.4    2.9      54.383
2013    6        2    22  56    3.86   610.2    2.9      54.324
2013    6        2    23   2    3.86   610.1    2.9      54.265
2013    6        2    23   8    3.86   609.9    2.9      54.205
2013    6        2    23  14    3.85   609.7    2.9      54.144
2013    6        2    23  20    3.85   609.5    2.9      54.083
2013    6        2    23  25    3.84   609.3    2.9      54.021
2013    6        2    23  31    3.84   609.1    2.9      53.958
2013    6        2    23  37    3.84   608.9    2.9      53.895
2013    6        2    23  43    3.83   608.7    2.9      53.831
2013    6        2    23  49    3.83   608.5    2.8      53.766
2013    6        2    23  55    3.83   608.3    2.8      53.701
2013    6        3     0   1    3.82   608.1    2.8      53.636
2013    6        3     0   7    3.82   607.9    2.8      53.570
2013    6        3     0  13    3.82   607.7    2.8      53.503
2013    6        3     0  19    3.81   607.5    2.8      53.436
2013    6        3     0  25    3.81   607.3    2.8      53.369
2013    6        3     0  31    3.81   607.1    2.8      53.300
2013    6        3     0  37    3.80   606.9    2.8      53.232
2013    6        3     0  43    3.80   606.7    2.8      53.163
2013    6        3     0  49    3.80   606.5    2.8      53.094
2013    6        3     0  55    3.79   606.3    2.8      53.024
2013    6        3     1   1    3.79   606.1    2.8      52.955
2013    6        3     1   7    3.79   605.9    2.8      52.884
2013    6        3     1  12    3.78   605.7    2.8      52.814
2013    6        3     1  18    3.78   605.5    2.8      52.744
2013    6        3     1  24    3.78   605.3    2.8      52.673
2013    6        3     1  30    3.77   605.1    2.8      52.603
2013    6        3     1  36    3.77   604.9    2.8      52.532
2013    6        3     1  42    3.77   604.7    2.8      52.461
2013    6        3     1  48    3.76   604.5    2.8      52.391
2013    6        3     1  54    3.76   604.2    2.8      52.320
2013    6        3     2   0    3.76   604.0    2.8      52.250
2013    6        3     2   6    3.75   603.8    2.8      52.180
2013    6        3     2  12    3.75   603.6    2.8      52.110
2013    6        3     2  18    3.75   603.4    2.8      52.041
2013    6        3     2  24    3.74   603.1    2.8      51.972
2013    6        3     2  30    3.74   602.9    2.8      51.903
2013    6        3     2  36    3.74   602.7    2.8      51.836
2013    6        3     2  42    3.73   602.5    2.8      51.769
2013    6        3     2  48    3.73   602.2    2.8      51.704
2013    6        3     2  53    3.73   602.0    2.8      51.639
2013    6        3     2  59    3.73   601.8    2.8      51.576
2013    6        3     3   5    3.72   601.5    2.8      51.514
2013    6        3     3  11    3.72   601.3    2.8      51.453
2013    6        3     3  17    3.72   601.1    2.8      51.394
2013    6        3     3  23    3.71   600.8    2.8      51.337
2013    6        3     3  29    3.71   600.6    2.8      51.281
2013    6        3     3  35    3.71   600.4    2.8      51.227
2013    6        3     3  41    3.70   600.2    2.8      51.175
2013    6        3     3  47    3.70   599.9    2.8      51.124
2013    6        3     3  53    3.70   599.7    2.8      51.074
2013    6        3     3  59    3.70   599.5    2.8      51.025
2013    6        3     4   5    3.69   599.3    2.8      50.976
2013    6        3     4  11    3.69   599.0    2.8      50.928
2013    6        3     4  17    3.69   598.8    2.8      50.879
2013    6        3     4  22    3.68   598.6    2.8      50.832
2013    6        3     4  28    3.68   598.4    2.8      50.784
2013    6        3     4  34    3.68   598.2    2.8      50.736
2013    6        3     4  40    3.68   597.9    2.8      50.688
2013    6        3     4  46    3.67   597.7    2.8      50.641
2013    6        3     4  52    3.67   597.5    2.8      50.593
2013    6        3     4  58    3.67   597.3    2.8      50.544
2013    6        3     5   4    3.66   597.1    2.8      50.495
2013    6        3     5  10    3.66   596.8    2.8      50.446
2013    6        3     5  16    3.66   596.6    2.8      50.395
2013    6        3     5  22    3.65   596.4    2.8      50.343
2013    6        3     5  28    3.65   596.2    2.8      50.290
2013    6        3     5  34    3.65   596.0    2.8      50.236
2013    6        3     5  40    3.65   595.7    2.8      50.181
2013    6        3     5  45    3.64   595.5    2.8      50.125
2013    6        3     5  51    3.64   595.3    2.8      50.068
2013    6        3     5  57    3.64   595.0    2.8      50.010
2013    6        3     6   3    3.63   594.8    2.8      49.951
2013    6        3     6   9    3.63   594.5    2.8      49.891
2013    6        3     6  15    3.63   594.3    2.8      49.831
2013    6        3     6  21    3.62   594.0    2.8      49.770
2013    6        3     6  27    3.62   593.8    2.8      49.708
2013    6        3     6  33    3.62   593.5    2.8      49.646
2013    6        3     6  39    3.61   593.2    2.8      49.584
2013    6        3     6  45    3.61   593.0    2.8      49.522
2013    6        3     6  51    3.61   592.7    2.8      49.459
2013    6        3     6  57    3.60   592.4    2.8      49.397
2013    6        3     7   3    3.60   592.2    2.8      49.335
2013    6        3     7   9    3.60   591.9    2.8      49.274
2013    6        3     7  15    3.59   591.6    2.8      49.212
2013    6        3     7  21    3.59   591.3    2.8      49.152
2013    6        3     7  26    3.59   591.0    2.8      49.093
2013    6        3     7  32    3.59   590.8    2.8      49.034
2013    6        3     7  38    3.58   590.5    2.8      48.975
2013    6        3     7  44    3.58   590.2    2.8      48.919
2013    6        3     7  50    3.58   589.9    2.8      48.863
2013    6        3     7  56    3.57   589.6    2.8      48.807
2013    6        3     8   2    3.57   589.4    2.8      48.752
2013    6        3     8   8    3.57   589.1    2.8      48.697
2013    6        3     8  14    3.57   588.8    2.8      48.642
2013    6        3     8  20    3.56   588.5    2.8      48.587
2013    6        3     8  26    3.56   588.3    2.8      48.530
2013    6        3     8  32    3.56   588.0    2.8      48.473
2013    6        3     8  38    3.56   587.7    2.8      48.415
2013    6        3     8  44    3.55   587.4    2.8      48.357
2013    6        3     8  50    3.55   587.2    2.8      48.298
2013    6        3     8  56    3.55   586.9    2.8      48.239
2013    6        3     9   2    3.55   586.6    2.8      48.178
2013    6        3     9   8    3.54   586.4    2.8      48.118
2013    6        3     9  13    3.54   586.1    2.8      48.056
2013    6        3     9  19    3.54   585.9    2.8      47.994
2013    6        3     9  25    3.54   585.6    2.8      47.931
2013    6        3     9  31    3.53   585.3    2.8      47.868
2013    6        3     9  37    3.53   585.1    2.8      47.804
2013    6        3     9  43    3.53   584.8    2.8      47.740
2013    6        3     9  49    3.53   584.6    2.8      47.675
2013    6        3     9  55    3.52   584.3    2.8      47.610
2013    6        3    10   1    3.52   584.0    2.8      47.544
2013    6        3    10   7    3.52   583.8    2.8      47.479
2013    6        3    10  13    3.51   583.5    2.8      47.412
2013    6        3    10  19    3.51   583.3    2.8      47.346
2013    6        3    10  25    3.51   583.0    2.8      47.279
2013    6        3    10  31    3.51   582.7    2.8      47.213
2013    6        3    10  37    3.50   582.5    2.8      47.146
2013    6        3    10  43    3.50   582.2    2.8      47.079
2013    6        3    10  48    3.50   582.0    2.8      47.012
2013    6        3    10  54    3.50   581.7    2.8      46.945
2013    6        3    11   0    3.49   581.4    2.8      46.879
2013    6        3    11   6    3.49   581.2    2.8      46.812
2013    6        3    11  12    3.49   580.9    2.8      46.746
2013    6        3    11  18    3.49   580.7    2.8      46.680
2013    6        3    11  24    3.48   580.4    2.8      46.614
2013    6        3    11  30    3.48   580.1    2.8      46.548
2013    6        3    11  36    3.48   579.9    2.8      46.483
2013    6        3    11  42    3.48   579.6    2.8      46.418
2013    6        3    11  48    3.47   579.4    2.8      46.353
2013    6        3    11  54    3.47   579.1    2.8      46.288
2013    6        3    12   0    3.47   578.8    2.8      46.224
2013    6        3    12   6    3.46   578.6    2.8      46.159
2013    6        3    12  12    3.46   578.3    2.8      46.095
2013    6        3    12  17    3.46   578.1    2.8      46.030
2013    6        3    12  23    3.46   577.8    2.8      45.965
2013    6        3    12  29    3.45   577.5    2.8      45.900
2013    6        3    12  35    3.45   577.3    2.8      45.834
2013    6        3    12  41    3.45   577.0    2.8      45.768
2013    6        3    12  47    3.44   576.7    2.8      45.701
2013    6        3    12  53    3.44   576.4    2.8      45.634
2013    6        3    12  59    3.44   576.2    2.8      45.566
2013    6        3    13   5    3.44   575.9    2.8      45.499
2013    6        3    13  11    3.43   575.6    2.8      45.431
2013    6        3    13  17    3.43   575.3    2.8      45.362
2013    6        3    13  23    3.43   575.0    2.8      45.294
2013    6        3    13  29    3.42   574.7    2.8      45.225
2013    6        3    13  35    3.42   574.4    2.8      45.156
2013    6        3    13  40    3.42   574.1    2.8      45.087
2013    6        3    13  46    3.42   573.8    2.8      45.018
2013    6        3    13  52    3.41   573.5    2.8      44.949
2013    6        3    13  58    3.41   573.2    2.8      44.880
2013    6        3    14   4    3.41   572.9    2.8      44.812
2013    6        3    14  10    3.41   572.6    2.8      44.744
2013    6        3    14  16    3.40   572.3    2.8      44.676
2013    6        3    14  22    3.40   571.9    2.8      44.609
2013    6        3    14  28    3.40   571.6    2.8      44.544
2013    6        3    14  34    3.39   571.3    2.8      44.479
2013    6        3    14  40    3.39   571.0    2.8      44.415
2013    6        3    14  46    3.39   570.6    2.8      44.353
2013    6        3    14  52    3.39   570.3    2.8      44.292
2013    6        3    14  58    3.39   570.0    2.8      44.233
2013    6        3    15   4    3.38   569.6    2.8      44.176
2013    6        3    15  10    3.38   569.3    2.8      44.121
2013    6        3    15  16    3.38   569.0    2.8      44.067
2013    6        3    15  22    3.38   568.7    2.8      44.014
2013    6        3    15  27    3.37   568.3    2.8      43.962
2013    6        3    15  33    3.37   568.0    2.8      43.911
2013    6        3    15  39    3.37   567.7    2.8      43.861
2013    6        3    15  45    3.37   567.4    2.8      43.810
2013    6        3    15  51    3.37   567.1    2.8      43.760
2013    6        3    15  57    3.36   566.7    2.8      43.710
2013    6        3    16   3    3.36   566.4    2.8      43.660
2013    6        3    16   9    3.36   566.1    2.8      43.610
2013    6        3    16  15    3.36   565.8    2.8      43.561
2013    6        3    16  21    3.36   565.5    2.8      43.511
2013    6        3    16  27    3.36   565.2    2.8      43.461
2013    6        3    16  33    3.35   564.9    2.8      43.412
2013    6        3    16  39    3.35   564.6    2.8      43.362
2013    6        3    16  45    3.35   564.3    2.8      43.312
2013    6        3    16  51    3.35   564.0    2.8      43.261
2013    6        3    16  57    3.35   563.7    2.8      43.211
2013    6        3    17   3    3.34   563.4    2.8      43.160
2013    6        3    17   8    3.34   563.1    2.8      43.108
2013    6        3    17  14    3.34   562.8    2.8      43.057
2013    6        3    17  20    3.34   562.5    2.8      43.004
2013    6        3    17  26    3.34   562.2    2.8      42.952
2013    6        3    17  32    3.33   561.9    2.8      42.898
2013    6        3    17  38    3.33   561.6    2.8      42.845
2013    6        3    17  44    3.33   561.3    2.8      42.790
2013    6        3    17  50    3.33   561.0    2.8      42.736
2013    6        3    17  56    3.32   560.7    2.8      42.681
2013    6        3    18   2    3.32   560.4    2.8      42.625
2013    6        3    18   8    3.32   560.1    2.8      42.570
2013    6        3    18  14    3.32   559.8    2.8      42.514
2013    6        3    18  20    3.32   559.5    2.8      42.457
2013    6        3    18  26    3.31   559.2    2.8      42.401
2013    6        3    18  32    3.31   558.9    2.8      42.344
2013    6        3    18  38    3.31   558.6    2.8      42.287
2013    6        3    18  43    3.31   558.3    2.8      42.229
2013    6        3    18  49    3.30   558.0    2.8      42.172
2013    6        3    18  55    3.30   557.6    2.8      42.114
2013    6        3    19   1    3.30   557.3    2.8      42.056
2013    6        3    19   7    3.30   557.0    2.8      41.998
2013    6        3    19  13    3.30   556.7    2.8      41.940
2013    6        3    19  19    3.29   556.4    2.8      41.882
2013    6        3    19  25    3.29   556.1    2.8      41.824
2013    6        3    19  31    3.29   555.8    2.8      41.766
2013    6        3    19  37    3.29   555.5    2.8      41.708
2013    6        3    19  43    3.28   555.1    2.8      41.650
2013    6        3    19  49    3.28   554.8    2.8      41.593
2013    6        3    19  55    3.28   554.5    2.8      41.536
2013    6        3    20   1    3.28   554.2    2.8      41.479
2013    6        3    20   6    3.28   553.9    2.8      41.423
2013    6        3    20  12    3.27   553.5    2.8      41.367
2013    6        3    20  18    3.27   553.2    2.8      41.312
2013    6        3    20  24    3.27   552.9    2.8      41.257
2013    6        3    20  30    3.27   552.6    2.8      41.203
2013    6        3    20  36    3.26   552.3    2.8      41.149
2013    6        3    20  42    3.26   552.0    2.8      41.095
2013    6        3    20  48    3.26   551.6    2.8      41.042
2013    6        3    20  54    3.26   551.3    2.8      40.989
2013    6        3    21   0    3.26   551.0    2.8      40.935
2013    6        3    21   6    3.25   550.7    2.8      40.881
2013    6        3    21  12    3.25   550.4    2.8      40.827
2013    6        3    21  18    3.25   550.0    2.8      40.773
2013    6        3    21  24    3.25   549.7    2.8      40.718
2013    6        3    21  30    3.25   549.4    2.8      40.663
2013    6        3    21  36    3.24   549.1    2.8      40.607
2013    6        3    21  41    3.24   548.7    2.8      40.550
2013    6        3    21  47    3.24   548.4    2.8      40.494
2013    6        3    21  53    3.24   548.1    2.8      40.436
2013    6        3    21  59    3.24   547.7    2.8      40.379
2013    6        3    22   5    3.23   547.4    2.8      40.321
2013    6        3    22  11    3.23   547.0    2.8      40.263
2013    6        3    22  17    3.23   546.7    2.8      40.204
2013    6        3    22  23    3.23   546.4    2.8      40.147
2013    6        3    22  29    3.23   546.0    2.8      40.089
2013    6        3    22  35    3.22   545.7    2.8      40.031
2013    6        3    22  41    3.22   545.3    2.8      39.974
2013    6        3    22  47    3.22   545.0    2.8      39.917
2013    6        3    22  53    3.22   544.6    2.8      39.861
2013    6        3    22  59    3.22   544.3    2.8      39.805
2013    6        3    23   5    3.22   543.9    2.8      39.750
2013    6        3    23  11    3.21   543.6    2.8      39.695
2013    6        3    23  17    3.21   543.3    2.8      39.640
2013    6        3    23  23    3.21   542.9    2.8      39.586
2013    6        3    23  28    3.21   542.6    2.8      39.533
2013    6        3    23  34    3.21   542.2    2.8      39.480
2013    6        3    23  40    3.21   541.9    2.8      39.427
2013    6        3    23  46    3.21   541.5    2.8      39.375
2013    6        3    23  52    3.20   541.2    2.8      39.323
2013    6        3    23  58    3.20   540.9    2.8      39.271
2013    6        4     0   4    3.20   540.5    2.8      39.219
2013    6        4     0  10    3.20   540.2    2.8      39.167
2013    6        4     0  16    3.20   539.8    2.8      39.116
2013    6        4     0  22    3.20   539.5    2.8      39.064
2013    6        4     0  28    3.19   539.1    2.8      39.012
2013    6        4     0  34    3.19   538.8    2.8      38.960
2013    6        4     0  40    3.19   538.5    2.8      38.908
2013    6        4     0  46    3.19   538.1    2.8      38.855
2013    6        4     0  52    3.19   537.8    2.8      38.803
2013    6        4     0  58    3.19   537.4    2.8      38.750
2013    6        4     1   4    3.19   537.0    2.8      38.697
2013    6        4     1   9    3.18   536.7    2.8      38.644
2013    6        4     1  15    3.18   536.3    2.8      38.590
2013    6        4     1  21    3.18   536.0    2.8      38.537
2013    6        4     1  27    3.18   535.6    2.8      38.484
2013    6        4     1  33    3.18   535.3    2.8      38.430
2013    6        4     1  39    3.18   534.9    2.8      38.377
2013    6        4     1  45    3.17   534.6    2.8      38.323
2013    6        4     1  51    3.17   534.2    2.8      38.270
2013    6        4     1  57    3.17   533.8    2.8      38.216
2013    6        4     2   3    3.17   533.5    2.8      38.163
2013    6        4     2   9    3.17   533.1    2.8      38.110
2013    6        4     2  15    3.17   532.8    2.8      38.056
2013    6        4     2  21    3.16   532.4    2.8      38.004
2013    6        4     2  27    3.16   532.0    2.8      37.951
2013    6        4     2  32    3.16   531.7    2.8      37.899
2013    6        4     2  38    3.16   531.3    2.8      37.847
2013    6        4     2  44    3.16   530.9    2.8      37.796
2013    6        4     2  50    3.16   530.6    2.8      37.745
2013    6        4     2  56    3.16   530.2    2.9      37.695
2013    6        4     3   2    3.15   529.8    2.9      37.646
2013    6        4     3   8    3.15   529.5    2.9      37.598
2013    6        4     3  14    3.15   529.1    2.9      37.551
2013    6        4     3  20    3.15   528.7    2.9      37.505
2013    6        4     3  26    3.15   528.4    2.9      37.460
2013    6        4     3  32    3.15   528.0    2.9      37.417
2013    6        4     3  38    3.15   527.6    2.9      37.374
2013    6        4     3  44    3.15   527.3    2.9      37.334
2013    6        4     3  50    3.14   526.9    2.9      37.294
2013    6        4     3  56    3.14   526.5    2.9      37.256
2013    6        4     4   1    3.14   526.2    2.9      37.218
2013    6        4     4   7    3.14   525.8    2.9      37.182
2013    6        4     4  13    3.14   525.5    2.9      37.146
2013    6        4     4  19    3.14   525.1    2.9      37.111
2013    6        4     4  25    3.14   524.8    2.9      37.076
2013    6        4     4  31    3.14   524.4    2.9      37.041
2013    6        4     4  37    3.14   524.1    2.9      37.007
2013    6        4     4  43    3.13   523.7    2.9      36.973
2013    6        4     4  49    3.13   523.4    2.9      36.939
2013    6        4     4  55    3.13   523.0    2.9      36.905
2013    6        4     5   1    3.13   522.6    2.9      36.870
2013    6        4     5   7    3.13   522.3    2.9      36.836
2013    6        4     5  13    3.13   521.9    2.9      36.801
2013    6        4     5  19    3.13   521.6    2.9      36.766
2013    6        4     5  25    3.13   521.2    2.9      36.731
2013    6        4     5  31    3.13   520.9    2.9      36.696
2013    6        4     5  37    3.13   520.5    2.9      36.660
2013    6        4     5  42    3.13   520.2    2.9      36.625
2013    6        4     5  48    3.13   519.8    2.9      36.589
2013    6        4     5  54    3.12   519.4    2.9      36.554
2013    6        4     6   0    3.12   519.1    2.9      36.518
2013    6        4     6   6    3.12   518.7    2.9      36.482
2013    6        4     6  12    3.12   518.4    2.9      36.446
2013    6        4     6  18    3.12   518.0    2.9      36.410
2013    6        4     6  24    3.12   517.6    3.0      36.373
2013    6        4     6  30    3.12   517.3    3.0      36.337
2013    6        4     6  36    3.12   516.9    3.0      36.301
2013    6        4     6  42    3.12   516.6    3.0      36.265
2013    6        4     6  48    3.12   516.2    3.0      36.228
2013    6        4     6  54    3.12   515.9    3.0      36.192
2013    6        4     7   0    3.12   515.5    3.0      36.155
2013    6        4     7   6    3.12   515.1    3.0      36.119
2013    6        4     7  12    3.12   514.8    3.0      36.082
2013    6        4     7  18    3.12   514.4    3.0      36.045
2013    6        4     7  24    3.12   514.1    3.0      36.008
2013    6        4     7  29    3.12   513.7    3.0      35.971
2013    6        4     7  35    3.12   513.4    3.0      35.933
2013    6        4     7  41    3.12   513.0    3.0      35.896
2013    6        4     7  47    3.12   512.7    3.0      35.858
2013    6        4     7  53    3.12   512.3    3.0      35.819
2013    6        4     7  59    3.12   512.0    3.0      35.781
2013    6        4     8   5    3.12   511.6    3.0      35.741
2013    6        4     8  11    3.11   511.3    3.0      35.702
2013    6        4     8  17    3.11   510.9    3.0      35.662
2013    6        4     8  23    3.11   510.5    3.0      35.622
2013    6        4     8  29    3.11   510.2    3.0      35.582
2013    6        4     8  35    3.11   509.8    3.0      35.541
2013    6        4     8  41    3.11   509.5    3.0      35.500
2013    6        4     8  47    3.11   509.1    3.0      35.459
2013    6        4     8  53    3.11   508.8    3.0      35.418
2013    6        4     8  58    3.11   508.4    3.0      35.376
2013    6        4     9   4    3.11   508.1    3.0      35.334
2013    6        4     9  10    3.11   507.7    3.0      35.292
2013    6        4     9  16    3.11   507.3    3.0      35.250
2013    6        4     9  22    3.11   507.0    3.0      35.208
2013    6        4     9  28    3.11   506.6    3.0      35.166
2013    6        4     9  34    3.11   506.3    3.0      35.124
2013    6        4     9  40    3.11   505.9    3.0      35.081
2013    6        4     9  46    3.11   505.6    3.0      35.039
2013    6        4     9  52    3.11   505.2    3.0      34.998
2013    6        4     9  58    3.11   504.8    3.0      34.956
2013    6        4    10   4    3.11   504.5    3.0      34.914
2013    6        4    10  10    3.11   504.1    3.1      34.873
2013    6        4    10  16    3.11   503.8    3.1      34.833
2013    6        4    10  22    3.11   503.4    3.1      34.792
2013    6        4    10  27    3.11   503.1    3.1      34.752
2013    6        4    10  33    3.11   502.7    3.1      34.713
2013    6        4    10  39    3.11   502.4    3.1      34.674
2013    6        4    10  45    3.11   502.0    3.1      34.636
2013    6        4    10  51    3.11   501.7    3.1      34.598
2013    6        4    10  57    3.12   501.3    3.1      34.561
2013    6        4    11   3    3.12   501.0    3.1      34.525
2013    6        4    11   9    3.12   500.6    3.1      34.489
2013    6        4    11  15    3.12   500.3    3.1      34.455
2013    6        4    11  21    3.12   499.9    3.1      34.420
2013    6        4    11  27    3.12   499.6    3.1      34.387
2013    6        4    11  33    3.12   499.2    3.1      34.355
2013    6        4    11  39    3.12   498.9    3.1      34.323
2013    6        4    11  45    3.12   498.6    3.1      34.293
2013    6        4    11  51    3.12   498.2    3.1      34.263
2013    6        4    11  56    3.12   497.9    3.1      34.234
2013    6        4    12   2    3.12   497.5    3.1      34.205
2013    6        4    12   8    3.12   497.2    3.1      34.178
2013    6        4    12  14    3.12   496.9    3.1      34.151
2013    6        4    12  20    3.12   496.5    3.1      34.125
2013    6        4    12  26    3.13   496.2    3.1      34.100
2013    6        4    12  32    3.13   495.9    3.2      34.075
2013    6        4    12  38    3.13   495.5    3.2      34.051
2013    6        4    12  44    3.13   495.2    3.2      34.028
2013    6        4    12  50    3.13   494.9    3.2      34.006
2013    6        4    12  56    3.13   494.6    3.2      33.984
2013    6        4    13   2    3.13   494.2    3.2      33.962
2013    6        4    13   8    3.13   493.9    3.2      33.942
2013    6        4    13  14    3.13   493.6    3.2      33.922
2013    6        4    13  20    3.14   493.3    3.2      33.902
2013    6        4    13  26    3.14   493.0    3.2      33.883
2013    6        4    13  32    3.14   492.6    3.2      33.864
2013    6        4    13  38    3.14   492.3    3.2      33.846
2013    6        4    13  43    3.14   492.0    3.2      33.829
2013    6        4    13  49    3.14   491.7    3.2      33.812
2013    6        4    13  55    3.14   491.4    3.2      33.795
2013    6        4    14   1    3.15   491.1    3.2      33.779
2013    6        4    14   7    3.15   490.8    3.2      33.763
2013    6        4    14  13    3.15   490.5    3.3      33.748
2013    6        4    14  19    3.15   490.2    3.3      33.733
2013    6        4    14  25    3.15   489.9    3.3      33.718
2013    6        4    14  31    3.15   489.6    3.3      33.704
2013    6        4    14  37    3.16   489.3    3.3      33.689
2013    6        4    14  43    3.16   489.0    3.3      33.675
2013    6        4    14  49    3.16   488.7    3.3      33.661
2013    6        4    14  55    3.16   488.4    3.3      33.646
2013    6        4    15   1    3.16   488.1    3.3      33.632
2013    6        4    15   7    3.17   487.8    3.3      33.618
2013    6        4    15  13    3.17   487.6    3.3      33.604
2013    6        4    15  19    3.17   487.3    3.3      33.589
2013    6        4    15  24    3.17   487.0    3.3      33.574
2013    6        4    15  30    3.17   486.7    3.3      33.559
2013    6        4    15  36    3.17   486.4    3.3      33.544
2013    6        4    15  42    3.18   486.2    3.3      33.529
2013    6        4    15  48    3.18   485.9    3.3      33.513
2013    6        4    15  54    3.18   485.6    3.4      33.498
2013    6        4    16   0    3.18   485.3    3.4      33.482
2013    6        4    16   6    3.18   485.1    3.4      33.466
2013    6        4    16  12    3.19   484.8    3.4      33.450
2013    6        4    16  18    3.19   484.5    3.4      33.434
2013    6        4    16  24    3.19   484.3    3.4      33.418
2013    6        4    16  30    3.19   484.0    3.4      33.402
2013    6        4    16  36    3.19   483.7    3.4      33.386
2013    6        4    16  42    3.19   483.5    3.4      33.369
2013    6        4    16  48    3.20   483.2    3.4      33.353
2013    6        4    16  53    3.20   482.9    3.4      33.336
2013    6        4    16  59    3.20   482.7    3.4      33.320
2013    6        4    17   5    3.20   482.4    3.4      33.304
2013    6        4    17  11    3.20   482.1    3.4      33.287
2013    6        4    17  17    3.21   481.9    3.4      33.271
2013    6        4    17  23    3.21   481.6    3.4      33.254
2013    6        4    17  29    3.21   481.4    3.4      33.238
2013    6        4    17  35    3.21   481.1    3.4      33.221
2013    6        4    17  41    3.21   480.9    3.4      33.205
2013    6        4    17  47    3.22   480.6    3.5      33.188
2013    6        4    17  53    3.22   480.4    3.5      33.172
2013    6        4    17  59    3.22   480.1    3.5      33.156
2013    6        4    18   5    3.22   479.9    3.5      33.140
2013    6        4    18  11    3.22   479.6    3.5      33.124
2013    6        4    18  16    3.22   479.4    3.5      33.108
2013    6        4    18  22    3.23   479.1    3.5      33.092
2013    6        4    18  28    3.23   478.9    3.5      33.077
2013    6        4    18  34    3.23   478.6    3.5      33.061
2013    6        4    18  40    3.23   478.4    3.5      33.046
2013    6        4    18  46    3.23   478.1    3.5      33.031
2013    6        4    18  52    3.24   477.9    3.5      33.016
2013    6        4    18  58    3.24   477.6    3.5      33.001
2013    6        4    19   4    3.24   477.4    3.5      32.987
2013    6        4    19  10    3.24   477.1    3.5      32.973
2013    6        4    19  16    3.25   476.9    3.5      32.959
2013    6        4    19  22    3.25   476.7    3.5      32.946
2013    6        4    19  28    3.25   476.4    3.5      32.933
2013    6        4    19  34    3.25   476.2    3.6      32.920
2013    6        4    19  40    3.25   475.9    3.6      32.908
2013    6        4    19  46    3.26   475.7    3.6      32.896
2013    6        4    19  52    3.26   475.5    3.6      32.884
2013    6        4    19  57    3.26   475.2    3.6      32.873
2013    6        4    20   3    3.26   475.0    3.6      32.862
2013    6        4    20   9    3.27   474.8    3.6      32.852
2013    6        4    20  15    3.27   474.5    3.6      32.842
2013    6        4    20  21    3.27   474.3    3.6      32.833
2013    6        4    20  27    3.27   474.1    3.6      32.825
2013    6        4    20  33    3.27   473.8    3.6      32.816
2013    6        4    20  39    3.28   473.6    3.6      32.808
2013    6        4    20  45    3.28   473.4    3.6      32.801
2013    6        4    20  51    3.28   473.2    3.6      32.794
2013    6        4    20  57    3.28   472.9    3.6      32.788
2013    6        4    21   3    3.29   472.7    3.6      32.782
2013    6        4    21   9    3.29   472.5    3.7      32.776
2013    6        4    21  15    3.29   472.3    3.7      32.771
2013    6        4    21  21    3.29   472.1    3.7      32.767
2013    6        4    21  27    3.30   471.9    3.7      32.762
2013    6        4    21  33    3.30   471.6    3.7      32.758
2013    6        4    21  39    3.30   471.4    3.7      32.754
2013    6        4    21  44    3.30   471.2    3.7      32.751
2013    6        4    21  50    3.31   471.0    3.7      32.748
2013    6        4    21  56    3.31   470.8    3.7      32.744
2013    6        4    22   2    3.31   470.6    3.7      32.742
2013    6        4    22   8    3.32   470.4    3.7      32.739
2013    6        4    22  14    3.32   470.2    3.7      32.736
2013    6        4    22  20    3.32   470.0    3.7      32.734
2013    6        4    22  26    3.32   469.8    3.7      32.732
2013    6        4    22  32    3.33   469.6    3.7      32.730
2013    6        4    22  38    3.33   469.4    3.8      32.728
2013    6        4    22  44    3.33   469.2    3.8      32.726
2013    6        4    22  50    3.33   469.0    3.8      32.724
2013    6        4    22  56    3.34   468.8    3.8      32.722
2013    6        4    23   2    3.34   468.6    3.8      32.720
2013    6        4    23   8    3.34   468.5    3.8      32.718
2013    6        4    23  14    3.34   468.3    3.8      32.717
2013    6        4    23  19    3.35   468.1    3.8      32.715
2013    6        4    23  25    3.35   467.9    3.8      32.714
2013    6        4    23  31    3.35   467.7    3.8      32.712
2013    6        4    23  37    3.35   467.5    3.8      32.711
2013    6        4    23  43    3.35   467.3    3.8      32.709
2013    6        4    23  49    3.36   467.2    3.8      32.708
2013    6        4    23  55    3.36   467.0    3.8      32.706
2013    6        5     0   1    3.36   466.8    3.8      32.705
