year    month   day   hour  minute  B_enl V_enl   n_enl       T_enl
[year] [month] [day] [hour][minute] [nT]  [km/s]  [cm-3]      [kK]
2015    1       13     0   2    5.6725   524.6    4.496      54.954
2015    1       13     0   7    5.6722   524.6    4.495      54.968
2015    1       13     0  12    5.6719   524.7    4.494      54.983
2015    1       13     0  18    5.6716   524.7    4.493      54.997
2015    1       13     0  23    5.6713   524.7    4.493      55.011
2015    1       13     0  29    5.6710   524.8    4.492      55.025
2015    1       13     0  34    5.6706   524.8    4.491      55.039
2015    1       13     0  39    5.6703   524.9    4.491      55.053
2015    1       13     0  45    5.6699   524.9    4.490      55.067
2015    1       13     0  50    5.6695   524.9    4.489      55.081
2015    1       13     0  56    5.6692   525.0    4.488      55.095
2015    1       13     1   1    5.6687   525.0    4.488      55.109
2015    1       13     1   6    5.6683   525.0    4.487      55.123
2015    1       13     1  12    5.6679   525.1    4.486      55.137
2015    1       13     1  17    5.6675   525.1    4.485      55.151
2015    1       13     1  23    5.6670   525.2    4.485      55.164
2015    1       13     1  28    5.6665   525.2    4.484      55.178
2015    1       13     1  34    5.6661   525.2    4.483      55.191
2015    1       13     1  39    5.6656   525.3    4.482      55.205
2015    1       13     1  44    5.6651   525.3    4.482      55.218
2015    1       13     1  50    5.6646   525.4    4.481      55.232
2015    1       13     1  55    5.6641   525.4    4.480      55.245
2015    1       13     2   1    5.6635   525.4    4.479      55.258
2015    1       13     2   6    5.6630   525.5    4.478      55.271
2015    1       13     2  11    5.6624   525.5    4.477      55.284
2015    1       13     2  17    5.6619   525.6    4.477      55.297
2015    1       13     2  22    5.6613   525.6    4.476      55.310
2015    1       13     2  28    5.6607   525.6    4.475      55.322
2015    1       13     2  33    5.6601   525.7    4.474      55.335
2015    1       13     2  39    5.6595   525.7    4.473      55.347
2015    1       13     2  44    5.6589   525.8    4.472      55.360
2015    1       13     2  49    5.6583   525.8    4.471      55.372
2015    1       13     2  55    5.6577   525.8    4.470      55.385
2015    1       13     3   0    5.6570   525.9    4.469      55.397
2015    1       13     3   6    5.6564   525.9    4.468      55.409
2015    1       13     3  11    5.6558   526.0    4.467      55.421
2015    1       13     3  16    5.6551   526.0    4.466      55.433
2015    1       13     3  22    5.6544   526.0    4.466      55.445
2015    1       13     3  27    5.6537   526.1    4.465      55.456
2015    1       13     3  33    5.6531   526.1    4.464      55.468
2015    1       13     3  38    5.6524   526.2    4.463      55.480
2015    1       13     3  44    5.6517   526.2    4.462      55.492
2015    1       13     3  49    5.6510   526.2    4.461      55.504
2015    1       13     3  54    5.6503   526.3    4.460      55.515
2015    1       13     4   0    5.6496   526.3    4.459      55.527
2015    1       13     4   5    5.6489   526.3    4.458      55.538
2015    1       13     4  11    5.6482   526.4    4.457      55.550
2015    1       13     4  16    5.6475   526.4    4.456      55.562
2015    1       13     4  21    5.6467   526.4    4.455      55.573
2015    1       13     4  27    5.6460   526.5    4.454      55.585
2015    1       13     4  32    5.6453   526.5    4.454      55.596
2015    1       13     4  38    5.6446   526.6    4.453      55.608
2015    1       13     4  43    5.6439   526.6    4.452      55.619
2015    1       13     4  48    5.6432   526.6    4.451      55.631
2015    1       13     4  54    5.6425   526.7    4.450      55.642
2015    1       13     4  59    5.6418   526.7    4.449      55.654
2015    1       13     5   5    5.6410   526.7    4.449      55.665
2015    1       13     5  10    5.6403   526.8    4.448      55.676
2015    1       13     5  16    5.6396   526.8    4.447      55.688
2015    1       13     5  21    5.6389   526.8    4.446      55.699
2015    1       13     5  26    5.6382   526.9    4.446      55.710
2015    1       13     5  32    5.6375   526.9    4.445      55.721
2015    1       13     5  37    5.6367   526.9    4.444      55.732
2015    1       13     5  43    5.6360   527.0    4.444      55.743
2015    1       13     5  48    5.6353   527.0    4.443      55.753
2015    1       13     5  53    5.6346   527.0    4.442      55.764
2015    1       13     5  59    5.6339   527.1    4.442      55.775
2015    1       13     6   4    5.6331   527.1    4.441      55.785
2015    1       13     6  10    5.6324   527.1    4.440      55.796
2015    1       13     6  15    5.6317   527.2    4.440      55.806
2015    1       13     6  21    5.6309   527.2    4.439      55.816
2015    1       13     6  26    5.6302   527.2    4.439      55.826
2015    1       13     6  31    5.6295   527.3    4.438      55.836
2015    1       13     6  37    5.6287   527.3    4.437      55.846
2015    1       13     6  42    5.6280   527.3    4.437      55.856
2015    1       13     6  48    5.6272   527.4    4.436      55.866
2015    1       13     6  53    5.6264   527.4    4.435      55.875
2015    1       13     6  58    5.6256   527.4    4.435      55.885
2015    1       13     7   4    5.6248   527.4    4.434      55.894
2015    1       13     7   9    5.6240   527.5    4.433      55.903
2015    1       13     7  15    5.6232   527.5    4.433      55.913
2015    1       13     7  20    5.6224   527.5    4.432      55.922
2015    1       13     7  26    5.6216   527.6    4.432      55.931
2015    1       13     7  31    5.6207   527.6    4.431      55.940
2015    1       13     7  36    5.6199   527.6    4.430      55.948
2015    1       13     7  42    5.6190   527.7    4.430      55.957
2015    1       13     7  47    5.6181   527.7    4.429      55.966
2015    1       13     7  53    5.6172   527.7    4.428      55.974
2015    1       13     7  58    5.6163   527.7    4.428      55.983
2015    1       13     8   3    5.6154   527.8    4.427      55.992
2015    1       13     8   9    5.6145   527.8    4.426      56.000
2015    1       13     8  14    5.6136   527.8    4.425      56.008
2015    1       13     8  20    5.6126   527.9    4.425      56.017
2015    1       13     8  25    5.6117   527.9    4.424      56.025
2015    1       13     8  30    5.6107   527.9    4.423      56.033
2015    1       13     8  36    5.6098   527.9    4.423      56.041
2015    1       13     8  41    5.6088   528.0    4.422      56.050
2015    1       13     8  47    5.6078   528.0    4.421      56.058
2015    1       13     8  52    5.6068   528.0    4.420      56.066
2015    1       13     8  58    5.6058   528.0    4.420      56.074
2015    1       13     9   3    5.6048   528.1    4.419      56.082
2015    1       13     9   8    5.6038   528.1    4.418      56.090
2015    1       13     9  14    5.6028   528.1    4.418      56.099
2015    1       13     9  19    5.6018   528.1    4.417      56.107
2015    1       13     9  25    5.6008   528.2    4.416      56.115
2015    1       13     9  30    5.5998   528.2    4.415      56.123
2015    1       13     9  35    5.5987   528.2    4.415      56.132
2015    1       13     9  41    5.5977   528.2    4.414      56.140
2015    1       13     9  46    5.5967   528.2    4.413      56.149
2015    1       13     9  52    5.5957   528.3    4.413      56.157
2015    1       13     9  57    5.5946   528.3    4.412      56.166
2015    1       13    10   3    5.5936   528.3    4.411      56.174
2015    1       13    10   8    5.5926   528.3    4.411      56.183
2015    1       13    10  13    5.5915   528.4    4.410      56.191
2015    1       13    10  19    5.5905   528.4    4.409      56.200
2015    1       13    10  24    5.5895   528.4    4.409      56.209
2015    1       13    10  30    5.5884   528.4    4.408      56.217
2015    1       13    10  35    5.5874   528.4    4.407      56.226
2015    1       13    10  40    5.5864   528.5    4.407      56.234
2015    1       13    10  46    5.5854   528.5    4.406      56.243
2015    1       13    10  51    5.5843   528.5    4.405      56.251
2015    1       13    10  57    5.5833   528.5    4.405      56.260
2015    1       13    11   2    5.5823   528.5    4.404      56.268
2015    1       13    11   8    5.5812   528.6    4.404      56.276
2015    1       13    11  13    5.5802   528.6    4.403      56.285
2015    1       13    11  18    5.5792   528.6    4.402      56.293
2015    1       13    11  24    5.5781   528.6    4.402      56.301
2015    1       13    11  29    5.5771   528.6    4.401      56.308
2015    1       13    11  35    5.5761   528.7    4.400      56.316
2015    1       13    11  40    5.5751   528.7    4.400      56.324
2015    1       13    11  45    5.5740   528.7    4.399      56.331
2015    1       13    11  51    5.5730   528.7    4.398      56.338
2015    1       13    11  56    5.5719   528.7    4.398      56.345
2015    1       13    12   2    5.5709   528.7    4.397      56.352
2015    1       13    12   7    5.5699   528.8    4.396      56.359
2015    1       13    12  12    5.5688   528.8    4.396      56.365
2015    1       13    12  18    5.5678   528.8    4.395      56.372
2015    1       13    12  23    5.5667   528.8    4.394      56.378
2015    1       13    12  29    5.5657   528.8    4.394      56.384
2015    1       13    12  34    5.5646   528.9    4.393      56.390
2015    1       13    12  40    5.5636   528.9    4.393      56.396
2015    1       13    12  45    5.5625   528.9    4.392      56.402
2015    1       13    12  50    5.5615   528.9    4.391      56.408
2015    1       13    12  56    5.5605   528.9    4.391      56.413
2015    1       13    13   1    5.5594   528.9    4.390      56.419
2015    1       13    13   7    5.5584   529.0    4.390      56.424
2015    1       13    13  12    5.5573   529.0    4.389      56.429
2015    1       13    13  17    5.5563   529.0    4.389      56.435
2015    1       13    13  23    5.5552   529.0    4.388      56.440
2015    1       13    13  28    5.5542   529.0    4.387      56.445
2015    1       13    13  34    5.5531   529.0    4.387      56.451
2015    1       13    13  39    5.5521   529.0    4.386      56.456
2015    1       13    13  45    5.5511   529.1    4.386      56.461
2015    1       13    13  50    5.5500   529.1    4.386      56.467
2015    1       13    13  55    5.5489   529.1    4.385      56.472
2015    1       13    14   1    5.5479   529.1    4.385      56.477
2015    1       13    14   6    5.5468   529.1    4.384      56.482
2015    1       13    14  12    5.5458   529.1    4.384      56.488
2015    1       13    14  17    5.5447   529.1    4.384      56.493
2015    1       13    14  22    5.5437   529.2    4.383      56.499
2015    1       13    14  28    5.5426   529.2    4.383      56.504
2015    1       13    14  33    5.5415   529.2    4.382      56.510
2015    1       13    14  39    5.5404   529.2    4.382      56.515
2015    1       13    14  44    5.5394   529.2    4.382      56.521
2015    1       13    14  50    5.5383   529.2    4.381      56.526
2015    1       13    14  55    5.5372   529.2    4.381      56.532
2015    1       13    15   0    5.5361   529.2    4.381      56.538
2015    1       13    15   6    5.5350   529.2    4.380      56.544
2015    1       13    15  11    5.5339   529.3    4.380      56.549
2015    1       13    15  17    5.5328   529.3    4.380      56.555
2015    1       13    15  22    5.5317   529.3    4.380      56.561
2015    1       13    15  27    5.5306   529.3    4.379      56.567
2015    1       13    15  33    5.5295   529.3    4.379      56.573
2015    1       13    15  38    5.5284   529.3    4.379      56.579
2015    1       13    15  44    5.5273   529.3    4.378      56.585
2015    1       13    15  49    5.5262   529.3    4.378      56.591
2015    1       13    15  54    5.5251   529.3    4.378      56.597
2015    1       13    16   0    5.5240   529.3    4.378      56.603
2015    1       13    16   5    5.5229   529.3    4.377      56.609
2015    1       13    16  11    5.5217   529.4    4.377      56.615
2015    1       13    16  16    5.5206   529.4    4.377      56.622
2015    1       13    16  22    5.5195   529.4    4.377      56.628
2015    1       13    16  27    5.5184   529.4    4.376      56.634
2015    1       13    16  32    5.5173   529.4    4.376      56.640
2015    1       13    16  38    5.5161   529.4    4.376      56.647
2015    1       13    16  43    5.5150   529.4    4.375      56.653
2015    1       13    16  49    5.5139   529.4    4.375      56.659
2015    1       13    16  54    5.5128   529.4    4.375      56.665
2015    1       13    16  59    5.5117   529.4    4.375      56.671
2015    1       13    17   5    5.5105   529.4    4.374      56.678
2015    1       13    17  10    5.5094   529.4    4.374      56.684
2015    1       13    17  16    5.5083   529.4    4.374      56.690
2015    1       13    17  21    5.5072   529.4    4.373      56.696
2015    1       13    17  27    5.5061   529.4    4.373      56.702
2015    1       13    17  32    5.5050   529.4    4.373      56.708
2015    1       13    17  37    5.5038   529.4    4.373      56.714
2015    1       13    17  43    5.5027   529.4    4.372      56.720
2015    1       13    17  48    5.5016   529.4    4.372      56.726
2015    1       13    17  54    5.5005   529.5    4.372      56.732
2015    1       13    17  59    5.4993   529.5    4.371      56.737
2015    1       13    18   4    5.4982   529.5    4.371      56.743
2015    1       13    18  10    5.4971   529.5    4.371      56.748
2015    1       13    18  15    5.4959   529.5    4.370      56.754
2015    1       13    18  21    5.4948   529.5    4.370      56.759
2015    1       13    18  26    5.4937   529.5    4.370      56.764
2015    1       13    18  32    5.4925   529.5    4.369      56.769
2015    1       13    18  37    5.4914   529.5    4.369      56.774
2015    1       13    18  42    5.4902   529.5    4.369      56.779
2015    1       13    18  48    5.4890   529.5    4.368      56.784
2015    1       13    18  53    5.4879   529.5    4.368      56.789
2015    1       13    18  59    5.4867   529.5    4.367      56.793
2015    1       13    19   4    5.4855   529.5    4.367      56.798
2015    1       13    19   9    5.4844   529.5    4.367      56.802
2015    1       13    19  15    5.4832   529.5    4.366      56.806
2015    1       13    19  20    5.4820   529.5    4.366      56.810
2015    1       13    19  26    5.4808   529.5    4.365      56.814
2015    1       13    19  31    5.4796   529.5    4.365      56.818
2015    1       13    19  36    5.4784   529.5    4.364      56.822
2015    1       13    19  42    5.4772   529.5    4.364      56.826
2015    1       13    19  47    5.4760   529.5    4.364      56.829
2015    1       13    19  53    5.4747   529.5    4.363      56.833
2015    1       13    19  58    5.4735   529.5    4.363      56.836
2015    1       13    20   4    5.4723   529.5    4.362      56.840
2015    1       13    20   9    5.4711   529.5    4.362      56.843
2015    1       13    20  14    5.4698   529.5    4.361      56.846
2015    1       13    20  20    5.4686   529.5    4.361      56.849
2015    1       13    20  25    5.4673   529.5    4.360      56.852
2015    1       13    20  31    5.4661   529.5    4.360      56.855
2015    1       13    20  36    5.4648   529.5    4.360      56.858
2015    1       13    20  41    5.4636   529.5    4.359      56.860
2015    1       13    20  47    5.4623   529.5    4.359      56.863
2015    1       13    20  52    5.4610   529.5    4.358      56.865
2015    1       13    20  58    5.4598   529.5    4.358      56.868
2015    1       13    21   3    5.4585   529.5    4.357      56.870
2015    1       13    21   9    5.4572   529.5    4.357      56.872
2015    1       13    21  14    5.4559   529.5    4.356      56.874
2015    1       13    21  19    5.4546   529.5    4.356      56.876
2015    1       13    21  25    5.4533   529.5    4.356      56.878
2015    1       13    21  30    5.4520   529.5    4.355      56.880
2015    1       13    21  36    5.4507   529.5    4.355      56.882
2015    1       13    21  41    5.4494   529.5    4.354      56.883
2015    1       13    21  46    5.4481   529.5    4.354      56.885
2015    1       13    21  52    5.4468   529.5    4.354      56.886
2015    1       13    21  57    5.4455   529.5    4.353      56.888
2015    1       13    22   3    5.4442   529.4    4.353      56.889
2015    1       13    22   8    5.4428   529.4    4.353      56.891
2015    1       13    22  14    5.4415   529.4    4.352      56.892
2015    1       13    22  19    5.4402   529.4    4.352      56.893
2015    1       13    22  24    5.4388   529.4    4.351      56.894
2015    1       13    22  30    5.4375   529.4    4.351      56.895
2015    1       13    22  35    5.4361   529.4    4.351      56.897
2015    1       13    22  41    5.4348   529.4    4.350      56.898
2015    1       13    22  46    5.4334   529.4    4.350      56.899
2015    1       13    22  51    5.4321   529.4    4.350      56.900
2015    1       13    22  57    5.4307   529.4    4.349      56.901
2015    1       13    23   2    5.4294   529.4    4.349      56.902
2015    1       13    23   8    5.4280   529.4    4.349      56.903
2015    1       13    23  13    5.4267   529.3    4.349      56.904
2015    1       13    23  18    5.4253   529.3    4.348      56.906
2015    1       13    23  24    5.4240   529.3    4.348      56.907
2015    1       13    23  29    5.4226   529.3    4.348      56.908
2015    1       13    23  35    5.4213   529.3    4.348      56.909
2015    1       13    23  40    5.4199   529.3    4.347      56.910
2015    1       13    23  45    5.4186   529.3    4.347      56.911
2015    1       13    23  51    5.4172   529.3    4.347      56.913
2015    1       13    23  56    5.4158   529.3    4.347      56.914
2015    1       14     0   2    5.4145   529.2    4.346      56.916
2015    1       14     0   7    5.4131   529.2    4.346      56.917
2015    1       14     0  13    5.4117   529.2    4.346      56.918
2015    1       14     0  18    5.4104   529.2    4.346      56.919
2015    1       14     0  23    5.4090   529.2    4.345      56.921
2015    1       14     0  29    5.4076   529.2    4.345      56.922
2015    1       14     0  34    5.4063   529.2    4.345      56.924
2015    1       14     0  40    5.4049   529.2    4.345      56.925
2015    1       14     0  45    5.4035   529.1    4.345      56.926
2015    1       14     0  50    5.4021   529.1    4.344      56.928
2015    1       14     0  56    5.4007   529.1    4.344      56.929
2015    1       14     1   1    5.3994   529.1    4.344      56.930
2015    1       14     1   7    5.3979   529.1    4.344      56.931
2015    1       14     1  12    5.3965   529.1    4.344      56.932
2015    1       14     1  17    5.3951   529.0    4.343      56.934
2015    1       14     1  23    5.3937   529.0    4.343      56.935
2015    1       14     1  28    5.3923   529.0    4.343      56.935
2015    1       14     1  34    5.3909   529.0    4.343      56.936
2015    1       14     1  39    5.3894   529.0    4.342      56.937
2015    1       14     1  44    5.3880   529.0    4.342      56.938
2015    1       14     1  50    5.3865   528.9    4.342      56.938
2015    1       14     1  55    5.3851   528.9    4.341      56.939
2015    1       14     2   1    5.3836   528.9    4.341      56.939
2015    1       14     2   6    5.3821   528.9    4.341      56.939
2015    1       14     2  11    5.3806   528.9    4.340      56.939
2015    1       14     2  17    5.3791   528.9    4.340      56.939
2015    1       14     2  22    5.3776   528.8    4.340      56.939
2015    1       14     2  28    5.3761   528.8    4.339      56.938
2015    1       14     2  33    5.3746   528.8    4.339      56.938
2015    1       14     2  39    5.3731   528.8    4.339      56.937
2015    1       14     2  44    5.3715   528.8    4.338      56.936
2015    1       14     2  49    5.3700   528.7    4.338      56.935
2015    1       14     2  55    5.3684   528.7    4.337      56.934
2015    1       14     3   0    5.3669   528.7    4.337      56.933
2015    1       14     3   6    5.3653   528.7    4.337      56.931
2015    1       14     3  11    5.3637   528.6    4.336      56.930
2015    1       14     3  16    5.3621   528.6    4.336      56.928
2015    1       14     3  22    5.3605   528.6    4.335      56.926
2015    1       14     3  27    5.3589   528.6    4.335      56.924
2015    1       14     3  33    5.3572   528.5    4.334      56.922
2015    1       14     3  38    5.3556   528.5    4.334      56.919
2015    1       14     3  43    5.3540   528.5    4.333      56.916
2015    1       14     3  49    5.3523   528.5    4.333      56.914
2015    1       14     3  54    5.3506   528.4    4.332      56.911
2015    1       14     4   0    5.3490   528.4    4.332      56.908
2015    1       14     4   5    5.3473   528.4    4.331      56.904
2015    1       14     4  11    5.3456   528.4    4.331      56.901
2015    1       14     4  16    5.3439   528.3    4.330      56.897
2015    1       14     4  21    5.3422   528.3    4.330      56.893
2015    1       14     4  27    5.3404   528.3    4.329      56.889
2015    1       14     4  32    5.3387   528.2    4.329      56.885
2015    1       14     4  38    5.3370   528.2    4.328      56.881
2015    1       14     4  43    5.3352   528.2    4.328      56.876
2015    1       14     4  48    5.3335   528.1    4.327      56.871
2015    1       14     4  54    5.3317   528.1    4.327      56.867
2015    1       14     4  59    5.3300   528.1    4.326      56.861
2015    1       14     5   5    5.3282   528.0    4.326      56.856
2015    1       14     5  10    5.3264   528.0    4.325      56.851
2015    1       14     5  16    5.3246   528.0    4.325      56.845
2015    1       14     5  21    5.3228   527.9    4.324      56.840
2015    1       14     5  26    5.3211   527.9    4.324      56.834
2015    1       14     5  32    5.3193   527.9    4.323      56.828
2015    1       14     5  37    5.3175   527.8    4.323      56.822
2015    1       14     5  43    5.3156   527.8    4.322      56.816
2015    1       14     5  48    5.3139   527.7    4.322      56.809
2015    1       14     5  53    5.3120   527.7    4.321      56.803
2015    1       14     5  59    5.3102   527.7    4.321      56.796
2015    1       14     6   4    5.3084   527.6    4.320      56.790
2015    1       14     6  10    5.3066   527.6    4.320      56.783
2015    1       14     6  15    5.3048   527.5    4.319      56.776
2015    1       14     6  20    5.3030   527.5    4.319      56.769
2015    1       14     6  26    5.3011   527.5    4.319      56.762
2015    1       14     6  31    5.2993   527.4    4.318      56.755
2015    1       14     6  37    5.2975   527.4    4.318      56.748
2015    1       14     6  42    5.2956   527.3    4.317      56.741
2015    1       14     6  48    5.2938   527.3    4.317      56.734
2015    1       14     6  53    5.2920   527.3    4.317      56.727
2015    1       14     6  58    5.2901   527.2    4.316      56.719
2015    1       14     7   4    5.2883   527.2    4.316      56.712
2015    1       14     7   9    5.2865   527.1    4.316      56.705
2015    1       14     7  15    5.2846   527.1    4.315      56.698
2015    1       14     7  20    5.2828   527.0    4.315      56.691
2015    1       14     7  25    5.2809   527.0    4.315      56.683
2015    1       14     7  31    5.2791   526.9    4.314      56.676
2015    1       14     7  36    5.2773   526.9    4.314      56.669
2015    1       14     7  42    5.2754   526.8    4.314      56.662
2015    1       14     7  47    5.2736   526.8    4.314      56.655
2015    1       14     7  52    5.2717   526.8    4.313      56.648
2015    1       14     7  58    5.2699   526.7    4.313      56.641
2015    1       14     8   3    5.2680   526.7    4.313      56.634
2015    1       14     8   9    5.2662   526.6    4.313      56.627
2015    1       14     8  14    5.2643   526.6    4.313      56.620
2015    1       14     8  19    5.2625   526.5    4.312      56.613
2015    1       14     8  25    5.2607   526.5    4.312      56.606
2015    1       14     8  30    5.2588   526.4    4.312      56.599
2015    1       14     8  36    5.2570   526.4    4.312      56.592
2015    1       14     8  41    5.2551   526.3    4.312      56.586
2015    1       14     8  46    5.2533   526.3    4.312      56.579
2015    1       14     8  52    5.2514   526.2    4.312      56.572
2015    1       14     8  57    5.2496   526.2    4.311      56.566
2015    1       14     9   3    5.2477   526.1    4.311      56.559
2015    1       14     9   8    5.2458   526.1    4.311      56.552
2015    1       14     9  14    5.2440   526.0    4.311      56.546
2015    1       14     9  19    5.2421   525.9    4.311      56.539
2015    1       14     9  24    5.2402   525.9    4.311      56.532
2015    1       14     9  30    5.2384   525.8    4.311      56.525
2015    1       14     9  35    5.2365   525.8    4.311      56.519
2015    1       14     9  41    5.2346   525.7    4.311      56.512
2015    1       14     9  46    5.2328   525.7    4.311      56.505
2015    1       14     9  51    5.2309   525.6    4.310      56.498
2015    1       14     9  57    5.2290   525.6    4.310      56.490
2015    1       14    10   2    5.2271   525.5    4.310      56.483
2015    1       14    10   8    5.2252   525.4    4.310      56.476
2015    1       14    10  13    5.2233   525.4    4.310      56.468
2015    1       14    10  18    5.2214   525.3    4.310      56.461
2015    1       14    10  24    5.2194   525.3    4.310      56.453
2015    1       14    10  29    5.2175   525.2    4.310      56.445
2015    1       14    10  35    5.2156   525.1    4.309      56.437
2015    1       14    10  40    5.2136   525.1    4.309      56.428
2015    1       14    10  46    5.2117   525.0    4.309      56.420
2015    1       14    10  51    5.2097   525.0    4.309      56.411
2015    1       14    10  56    5.2077   524.9    4.309      56.402
2015    1       14    11   2    5.2058   524.8    4.308      56.392
2015    1       14    11   7    5.2038   524.8    4.308      56.383
2015    1       14    11  13    5.2018   524.7    4.308      56.373
2015    1       14    11  18    5.1998   524.6    4.308      56.363
2015    1       14    11  23    5.1978   524.6    4.307      56.353
2015    1       14    11  29    5.1958   524.5    4.307      56.343
2015    1       14    11  34    5.1937   524.4    4.307      56.332
2015    1       14    11  40    5.1917   524.4    4.307      56.321
2015    1       14    11  45    5.1897   524.3    4.306      56.310
2015    1       14    11  50    5.1876   524.2    4.306      56.298
2015    1       14    11  56    5.1856   524.2    4.305      56.287
2015    1       14    12   1    5.1835   524.1    4.305      56.275
2015    1       14    12   7    5.1814   524.0    4.305      56.263
2015    1       14    12  12    5.1794   523.9    4.304      56.250
2015    1       14    12  18    5.1773   523.9    4.304      56.238
2015    1       14    12  23    5.1752   523.8    4.304      56.225
2015    1       14    12  28    5.1731   523.7    4.303      56.212
2015    1       14    12  34    5.1711   523.6    4.303      56.198
2015    1       14    12  39    5.1690   523.6    4.302      56.185
2015    1       14    12  45    5.1669   523.5    4.302      56.171
2015    1       14    12  50    5.1648   523.4    4.302      56.157
2015    1       14    12  55    5.1627   523.3    4.301      56.143
2015    1       14    13   1    5.1606   523.3    4.301      56.128
2015    1       14    13   6    5.1585   523.2    4.300      56.114
2015    1       14    13  12    5.1564   523.1    4.300      56.099
2015    1       14    13  17    5.1543   523.0    4.300      56.084
2015    1       14    13  23    5.1521   522.9    4.299      56.069
2015    1       14    13  28    5.1501   522.9    4.299      56.053
2015    1       14    13  33    5.1479   522.8    4.299      56.038
2015    1       14    13  39    5.1458   522.7    4.298      56.022
2015    1       14    13  44    5.1437   522.6    4.298      56.007
2015    1       14    13  50    5.1417   522.5    4.297      55.991
2015    1       14    13  55    5.1395   522.4    4.297      55.975
2015    1       14    14   0    5.1375   522.4    4.297      55.959
2015    1       14    14   6    5.1354   522.3    4.296      55.942
2015    1       14    14  11    5.1333   522.2    4.296      55.926
2015    1       14    14  17    5.1312   522.1    4.296      55.910
2015    1       14    14  22    5.1291   522.0    4.296      55.893
2015    1       14    14  27    5.1270   521.9    4.295      55.877
2015    1       14    14  33    5.1250   521.8    4.295      55.861
2015    1       14    14  38    5.1229   521.8    4.295      55.844
2015    1       14    14  44    5.1208   521.7    4.295      55.827
2015    1       14    14  49    5.1188   521.6    4.294      55.811
2015    1       14    14  54    5.1167   521.5    4.294      55.794
2015    1       14    15   0    5.1147   521.4    4.294      55.778
2015    1       14    15   5    5.1126   521.3    4.294      55.761
2015    1       14    15  11    5.1106   521.2    4.294      55.744
2015    1       14    15  16    5.1085   521.1    4.294      55.728
2015    1       14    15  22    5.1065   521.0    4.294      55.711
2015    1       14    15  27    5.1045   521.0    4.294      55.695
2015    1       14    15  32    5.1024   520.9    4.293      55.679
2015    1       14    15  38    5.1004   520.8    4.293      55.662
2015    1       14    15  43    5.0984   520.7    4.293      55.646
2015    1       14    15  49    5.0964   520.6    4.293      55.630
2015    1       14    15  54    5.0944   520.5    4.294      55.614
2015    1       14    15  59    5.0924   520.4    4.294      55.598
2015    1       14    16   5    5.0904   520.3    4.294      55.582
2015    1       14    16  10    5.0884   520.2    4.294      55.566
2015    1       14    16  16    5.0864   520.1    4.294      55.551
2015    1       14    16  21    5.0844   520.0    4.294      55.535
2015    1       14    16  26    5.0824   519.9    4.294      55.520
2015    1       14    16  32    5.0805   519.8    4.294      55.504
2015    1       14    16  37    5.0785   519.7    4.294      55.489
2015    1       14    16  43    5.0765   519.6    4.295      55.474
2015    1       14    16  48    5.0746   519.5    4.295      55.459
2015    1       14    16  53    5.0726   519.4    4.295      55.444
2015    1       14    16  59    5.0707   519.4    4.295      55.429
2015    1       14    17   4    5.0687   519.3    4.296      55.414
2015    1       14    17  10    5.0668   519.2    4.296      55.399
2015    1       14    17  15    5.0648   519.1    4.296      55.385
2015    1       14    17  20    5.0629   519.0    4.296      55.370
2015    1       14    17  26    5.0609   518.9    4.297      55.355
2015    1       14    17  31    5.0590   518.8    4.297      55.340
2015    1       14    17  37    5.0570   518.7    4.297      55.326
2015    1       14    17  42    5.0550   518.6    4.298      55.311
2015    1       14    17  48    5.0531   518.5    4.298      55.296
2015    1       14    17  53    5.0511   518.4    4.298      55.281
2015    1       14    17  58    5.0492   518.3    4.298      55.266
2015    1       14    18   4    5.0472   518.2    4.299      55.252
2015    1       14    18   9    5.0452   518.1    4.299      55.236
2015    1       14    18  15    5.0432   518.0    4.299      55.221
2015    1       14    18  20    5.0412   517.8    4.300      55.206
2015    1       14    18  25    5.0393   517.7    4.300      55.191
2015    1       14    18  31    5.0373   517.6    4.300      55.175
2015    1       14    18  36    5.0353   517.5    4.300      55.159
2015    1       14    18  42    5.0333   517.4    4.301      55.143
2015    1       14    18  47    5.0313   517.3    4.301      55.127
2015    1       14    18  53    5.0293   517.2    4.301      55.111
2015    1       14    18  58    5.0272   517.1    4.301      55.095
2015    1       14    19   3    5.0252   517.0    4.301      55.078
2015    1       14    19   9    5.0232   516.9    4.302      55.062
2015    1       14    19  14    5.0212   516.8    4.302      55.045
2015    1       14    19  20    5.0192   516.7    4.302      55.028
2015    1       14    19  25    5.0171   516.6    4.302      55.011
2015    1       14    19  30    5.0151   516.4    4.302      54.993
2015    1       14    19  36    5.0131   516.3    4.303      54.976
2015    1       14    19  41    5.0111   516.2    4.303      54.958
2015    1       14    19  47    5.0091   516.1    4.303      54.940
2015    1       14    19  52    5.0071   516.0    4.303      54.922
2015    1       14    19  57    5.0051   515.9    4.303      54.904
2015    1       14    20   3    5.0031   515.8    4.303      54.886
2015    1       14    20   8    5.0011   515.7    4.304      54.868
2015    1       14    20  14    4.9991   515.5    4.304      54.849
2015    1       14    20  19    4.9971   515.4    4.304      54.830
2015    1       14    20  25    4.9951   515.3    4.304      54.811
2015    1       14    20  30    4.9931   515.2    4.304      54.792
2015    1       14    20  35    4.9912   515.1    4.305      54.773
2015    1       14    20  41    4.9892   515.0    4.305      54.754
2015    1       14    20  46    4.9873   514.8    4.305      54.734
2015    1       14    20  52    4.9853   514.7    4.305      54.715
2015    1       14    20  57    4.9834   514.6    4.306      54.695
2015    1       14    21   2    4.9814   514.5    4.306      54.675
2015    1       14    21   8    4.9795   514.4    4.306      54.655
2015    1       14    21  13    4.9776   514.2    4.306      54.635
2015    1       14    21  19    4.9757   514.1    4.307      54.615
2015    1       14    21  24    4.9738   514.0    4.307      54.594
2015    1       14    21  29    4.9719   513.9    4.307      54.574
2015    1       14    21  35    4.9700   513.8    4.308      54.553
2015    1       14    21  40    4.9681   513.6    4.308      54.532
2015    1       14    21  46    4.9662   513.5    4.308      54.511
2015    1       14    21  51    4.9644   513.4    4.308      54.490
2015    1       14    21  57    4.9625   513.3    4.309      54.468
2015    1       14    22   2    4.9607   513.1    4.309      54.447
2015    1       14    22   7    4.9588   513.0    4.309      54.425
2015    1       14    22  13    4.9570   512.9    4.310      54.403
2015    1       14    22  18    4.9551   512.8    4.310      54.381
2015    1       14    22  24    4.9533   512.7    4.310      54.359
2015    1       14    22  29    4.9515   512.5    4.310      54.337
2015    1       14    22  34    4.9497   512.4    4.311      54.315
2015    1       14    22  40    4.9479   512.3    4.311      54.292
2015    1       14    22  45    4.9461   512.2    4.311      54.270
2015    1       14    22  51    4.9443   512.0    4.311      54.247
2015    1       14    22  56    4.9425   511.9    4.312      54.225
2015    1       14    23   1    4.9407   511.8    4.312      54.202
2015    1       14    23   7    4.9389   511.7    4.312      54.179
2015    1       14    23  12    4.9371   511.5    4.313      54.156
2015    1       14    23  18    4.9354   511.4    4.313      54.133
2015    1       14    23  23    4.9336   511.3    4.313      54.110
2015    1       14    23  28    4.9319   511.1    4.313      54.087
2015    1       14    23  34    4.9301   511.0    4.314      54.064
2015    1       14    23  39    4.9284   510.9    4.314      54.041
2015    1       14    23  45    4.9266   510.8    4.314      54.018
2015    1       14    23  50    4.9249   510.6    4.315      53.995
2015    1       14    23  55    4.9231   510.5    4.315      53.972
2015    1       15     0   1    4.9214   510.4    4.315      53.949
2015    1       15     0   6    4.9197   510.2    4.316      53.926
2015    1       15     0  12    4.9180   510.1    4.316      53.903
2015    1       15     0  17    4.9163   510.0    4.316      53.880
2015    1       15     0  23    4.9146   509.8    4.317      53.857
2015    1       15     0  28    4.9128   509.7    4.317      53.834
2015    1       15     0  33    4.9111   509.6    4.317      53.812
2015    1       15     0  39    4.9094   509.4    4.318      53.789
2015    1       15     0  44    4.9077   509.3    4.318      53.766
2015    1       15     0  50    4.9060   509.2    4.319      53.744
2015    1       15     0  55    4.9043   509.0    4.319      53.721
2015    1       15     1   0    4.9027   508.9    4.320      53.699
2015    1       15     1   6    4.9010   508.7    4.320      53.677
2015    1       15     1  11    4.8993   508.6    4.321      53.655
2015    1       15     1  17    4.8976   508.5    4.321      53.633
2015    1       15     1  22    4.8959   508.3    4.322      53.611
2015    1       15     1  27    4.8943   508.2    4.323      53.589
2015    1       15     1  33    4.8926   508.1    4.323      53.568
2015    1       15     1  38    4.8909   507.9    4.324      53.546
2015    1       15     1  44    4.8892   507.8    4.324      53.525
2015    1       15     1  49    4.8876   507.6    4.325      53.503
2015    1       15     1  55    4.8859   507.5    4.326      53.482
2015    1       15     2   0    4.8842   507.3    4.326      53.461
2015    1       15     2   5    4.8825   507.2    4.327      53.440
2015    1       15     2  11    4.8808   507.1    4.328      53.419
2015    1       15     2  16    4.8792   506.9    4.329      53.398
2015    1       15     2  22    4.8775   506.8    4.329      53.377
2015    1       15     2  27    4.8758   506.6    4.330      53.356
2015    1       15     2  32    4.8742   506.5    4.331      53.336
2015    1       15     2  38    4.8725   506.3    4.332      53.315
2015    1       15     2  43    4.8708   506.2    4.333      53.294
2015    1       15     2  49    4.8692   506.0    4.333      53.274
2015    1       15     2  54    4.8675   505.9    4.334      53.254
2015    1       15     3   0    4.8659   505.8    4.335      53.233
2015    1       15     3   5    4.8642   505.6    4.336      53.213
2015    1       15     3  10    4.8626   505.5    4.337      53.193
2015    1       15     3  16    4.8609   505.3    4.338      53.173
2015    1       15     3  21    4.8593   505.2    4.339      53.153
2015    1       15     3  27    4.8577   505.0    4.340      53.133
2015    1       15     3  32    4.8561   504.9    4.341      53.113
2015    1       15     3  37    4.8545   504.7    4.342      53.093
2015    1       15     3  43    4.8529   504.6    4.343      53.073
2015    1       15     3  48    4.8513   504.4    4.344      53.053
2015    1       15     3  54    4.8497   504.3    4.345      53.033
2015    1       15     3  59    4.8481   504.1    4.346      53.014
2015    1       15     4   4    4.8466   504.0    4.347      52.994
2015    1       15     4  10    4.8450   503.8    4.348      52.975
2015    1       15     4  15    4.8435   503.7    4.349      52.955
2015    1       15     4  21    4.8420   503.5    4.350      52.936
2015    1       15     4  26    4.8404   503.3    4.351      52.916
2015    1       15     4  32    4.8389   503.2    4.352      52.897
2015    1       15     4  37    4.8374   503.0    4.354      52.878
2015    1       15     4  42    4.8360   502.9    4.355      52.858
2015    1       15     4  48    4.8345   502.7    4.356      52.839
2015    1       15     4  53    4.8330   502.6    4.357      52.820
2015    1       15     4  59    4.8316   502.4    4.358      52.801
2015    1       15     5   4    4.8301   502.3    4.360      52.782
2015    1       15     5   9    4.8287   502.1    4.361      52.762
2015    1       15     5  15    4.8273   502.0    4.362      52.743
2015    1       15     5  20    4.8259   501.8    4.363      52.724
2015    1       15     5  26    4.8245   501.7    4.365      52.705
2015    1       15     5  31    4.8232   501.5    4.366      52.685
2015    1       15     5  36    4.8218   501.4    4.367      52.666
2015    1       15     5  42    4.8204   501.2    4.369      52.647
2015    1       15     5  47    4.8191   501.1    4.370      52.628
2015    1       15     5  53    4.8177   500.9    4.371      52.608
2015    1       15     5  58    4.8164   500.8    4.372      52.589
2015    1       15     6   3    4.8151   500.6    4.374      52.569
2015    1       15     6   9    4.8138   500.4    4.375      52.550
2015    1       15     6  14    4.8125   500.3    4.376      52.530
2015    1       15     6  20    4.8111   500.1    4.377      52.510
2015    1       15     6  25    4.8098   500.0    4.379      52.490
2015    1       15     6  30    4.8085   499.8    4.380      52.470
2015    1       15     6  36    4.8072   499.7    4.381      52.449
2015    1       15     6  41    4.8059   499.5    4.382      52.429
2015    1       15     6  47    4.8046   499.4    4.383      52.408
2015    1       15     6  52    4.8034   499.2    4.384      52.388
2015    1       15     6  58    4.8021   499.1    4.385      52.367
2015    1       15     7   3    4.8008   498.9    4.387      52.346
2015    1       15     7   8    4.7995   498.8    4.388      52.324
2015    1       15     7  14    4.7982   498.6    4.389      52.303
2015    1       15     7  19    4.7969   498.4    4.390      52.282
2015    1       15     7  25    4.7957   498.3    4.391      52.260
2015    1       15     7  30    4.7944   498.1    4.392      52.238
2015    1       15     7  35    4.7931   498.0    4.393      52.217
2015    1       15     7  41    4.7919   497.8    4.394      52.195
2015    1       15     7  46    4.7906   497.7    4.395      52.173
2015    1       15     7  52    4.7893   497.5    4.396      52.151
2015    1       15     7  57    4.7881   497.4    4.397      52.128
2015    1       15     8   2    4.7868   497.2    4.398      52.106
2015    1       15     8   8    4.7855   497.0    4.399      52.084
2015    1       15     8  13    4.7843   496.9    4.400      52.062
2015    1       15     8  19    4.7830   496.7    4.401      52.039
2015    1       15     8  24    4.7818   496.6    4.402      52.017
2015    1       15     8  30    4.7805   496.4    4.402      51.995
2015    1       15     8  35    4.7793   496.3    4.403      51.972
2015    1       15     8  40    4.7781   496.1    4.404      51.950
2015    1       15     8  46    4.7768   495.9    4.405      51.928
2015    1       15     8  51    4.7756   495.8    4.406      51.906
2015    1       15     8  57    4.7744   495.6    4.407      51.884
2015    1       15     9   2    4.7731   495.5    4.408      51.862
2015    1       15     9   7    4.7719   495.3    4.409      51.840
2015    1       15     9  13    4.7707   495.1    4.410      51.818
2015    1       15     9  18    4.7695   495.0    4.411      51.796
2015    1       15     9  24    4.7683   494.8    4.412      51.775
2015    1       15     9  29    4.7671   494.7    4.414      51.753
2015    1       15     9  34    4.7659   494.5    4.415      51.732
2015    1       15     9  40    4.7647   494.3    4.416      51.711
2015    1       15     9  45    4.7635   494.2    4.417      51.690
2015    1       15     9  51    4.7623   494.0    4.418      51.669
2015    1       15     9  56    4.7612   493.9    4.419      51.648
2015    1       15    10   2    4.7600   493.7    4.420      51.627
2015    1       15    10   7    4.7589   493.5    4.422      51.607
2015    1       15    10  12    4.7577   493.4    4.423      51.587
2015    1       15    10  18    4.7566   493.2    4.424      51.567
2015    1       15    10  23    4.7555   493.0    4.426      51.547
2015    1       15    10  29    4.7544   492.9    4.427      51.528
2015    1       15    10  34    4.7533   492.7    4.428      51.508
2015    1       15    10  39    4.7522   492.6    4.430      51.489
2015    1       15    10  45    4.7511   492.4    4.431      51.471
2015    1       15    10  50    4.7501   492.2    4.433      51.452
2015    1       15    10  56    4.7490   492.1    4.434      51.433
2015    1       15    11   1    4.7480   491.9    4.436      51.415
2015    1       15    11   7    4.7469   491.7    4.437      51.397
2015    1       15    11  12    4.7459   491.6    4.439      51.379
2015    1       15    11  17    4.7449   491.4    4.440      51.361
2015    1       15    11  23    4.7439   491.2    4.442      51.343
2015    1       15    11  28    4.7430   491.1    4.444      51.326
2015    1       15    11  34    4.7420   490.9    4.445      51.308
2015    1       15    11  39    4.7410   490.7    4.447      51.291
2015    1       15    11  44    4.7401   490.6    4.449      51.274
2015    1       15    11  50    4.7392   490.4    4.450      51.257
2015    1       15    11  55    4.7382   490.3    4.452      51.240
2015    1       15    12   1    4.7373   490.1    4.454      51.224
2015    1       15    12   6    4.7364   489.9    4.456      51.207
2015    1       15    12  11    4.7356   489.8    4.457      51.191
2015    1       15    12  17    4.7347   489.6    4.459      51.175
2015    1       15    12  22    4.7338   489.4    4.461      51.158
2015    1       15    12  28    4.7330   489.3    4.463      51.142
2015    1       15    12  33    4.7321   489.1    4.465      51.126
2015    1       15    12  38    4.7313   488.9    4.466      51.110
2015    1       15    12  44    4.7305   488.8    4.468      51.095
2015    1       15    12  49    4.7297   488.6    4.470      51.079
2015    1       15    12  55    4.7289   488.4    4.472      51.063
2015    1       15    13   0    4.7281   488.3    4.474      51.048
2015    1       15    13   6    4.7274   488.1    4.476      51.032
2015    1       15    13  11    4.7266   488.0    4.478      51.017
2015    1       15    13  16    4.7258   487.8    4.480      51.002
2015    1       15    13  22    4.7251   487.6    4.482      50.987
2015    1       15    13  27    4.7244   487.5    4.484      50.972
2015    1       15    13  33    4.7236   487.3    4.485      50.956
2015    1       15    13  38    4.7229   487.1    4.487      50.941
2015    1       15    13  43    4.7222   487.0    4.489      50.926
2015    1       15    13  49    4.7215   486.8    4.491      50.911
2015    1       15    13  54    4.7208   486.7    4.493      50.897
2015    1       15    14   0    4.7201   486.5    4.495      50.882
2015    1       15    14   5    4.7194   486.3    4.497      50.867
2015    1       15    14  10    4.7188   486.2    4.499      50.852
2015    1       15    14  16    4.7181   486.0    4.501      50.837
2015    1       15    14  21    4.7174   485.9    4.503      50.822
2015    1       15    14  27    4.7168   485.7    4.505      50.807
2015    1       15    14  32    4.7161   485.5    4.507      50.792
2015    1       15    14  37    4.7154   485.4    4.509      50.777
2015    1       15    14  43    4.7148   485.2    4.510      50.762
2015    1       15    14  48    4.7142   485.1    4.512      50.747
2015    1       15    14  54    4.7135   484.9    4.514      50.732
2015    1       15    14  59    4.7129   484.8    4.516      50.717
2015    1       15    15   4    4.7123   484.6    4.518      50.702
2015    1       15    15  10    4.7116   484.4    4.520      50.687
2015    1       15    15  15    4.7110   484.3    4.522      50.671
2015    1       15    15  21    4.7104   484.1    4.523      50.656
2015    1       15    15  26    4.7098   484.0    4.525      50.641
2015    1       15    15  32    4.7092   483.8    4.527      50.625
2015    1       15    15  37    4.7085   483.6    4.529      50.610
2015    1       15    15  42    4.7079   483.5    4.531      50.594
2015    1       15    15  48    4.7073   483.3    4.532      50.578
2015    1       15    15  53    4.7067   483.2    4.534      50.563
2015    1       15    15  59    4.7061   483.0    4.536      50.547
2015    1       15    16   4    4.7055   482.9    4.538      50.531
2015    1       15    16   9    4.7050   482.7    4.539      50.516
2015    1       15    16  15    4.7044   482.5    4.541      50.500
2015    1       15    16  20    4.7038   482.4    4.543      50.484
2015    1       15    16  26    4.7032   482.2    4.545      50.469
2015    1       15    16  31    4.7027   482.1    4.546      50.453
2015    1       15    16  37    4.7021   481.9    4.548      50.437
2015    1       15    16  42    4.7016   481.8    4.550      50.422
2015    1       15    16  47    4.7010   481.6    4.552      50.407
2015    1       15    16  53    4.7005   481.5    4.553      50.391
2015    1       15    16  58    4.7000   481.3    4.555      50.376
2015    1       15    17   4    4.6994   481.1    4.557      50.361
2015    1       15    17   9    4.6989   481.0    4.559      50.346
2015    1       15    17  14    4.6985   480.8    4.561      50.331
2015    1       15    17  20    4.6980   480.7    4.562      50.316
2015    1       15    17  25    4.6975   480.5    4.564      50.301
2015    1       15    17  31    4.6970   480.4    4.566      50.287
2015    1       15    17  36    4.6966   480.2    4.568      50.273
2015    1       15    17  41    4.6962   480.1    4.570      50.259
2015    1       15    17  47    4.6957   479.9    4.572      50.245
2015    1       15    17  52    4.6953   479.7    4.574      50.231
2015    1       15    17  58    4.6949   479.6    4.576      50.218
2015    1       15    18   3    4.6945   479.4    4.578      50.205
2015    1       15    18   9    4.6942   479.3    4.580      50.192
2015    1       15    18  14    4.6938   479.1    4.582      50.179
2015    1       15    18  19    4.6935   479.0    4.584      50.167
2015    1       15    18  25    4.6931   478.8    4.586      50.154
2015    1       15    18  30    4.6928   478.7    4.588      50.142
2015    1       15    18  36    4.6925   478.5    4.591      50.130
2015    1       15    18  41    4.6921   478.4    4.593      50.118
2015    1       15    18  46    4.6918   478.2    4.595      50.107
2015    1       15    18  52    4.6915   478.1    4.597      50.095
2015    1       15    18  57    4.6913   477.9    4.599      50.084
2015    1       15    19   3    4.6910   477.8    4.602      50.073
2015    1       15    19   8    4.6907   477.6    4.604      50.062
2015    1       15    19  13    4.6904   477.5    4.606      50.051
2015    1       15    19  19    4.6902   477.3    4.608      50.041
2015    1       15    19  24    4.6899   477.2    4.611      50.030
2015    1       15    19  30    4.6897   477.0    4.613      50.020
2015    1       15    19  35    4.6894   476.9    4.615      50.009
2015    1       15    19  41    4.6892   476.7    4.617      49.999
2015    1       15    19  46    4.6890   476.6    4.620      49.989
2015    1       15    19  51    4.6887   476.4    4.622      49.979
2015    1       15    19  57    4.6885   476.3    4.624      49.969
2015    1       15    20   2    4.6883   476.1    4.626      49.959
2015    1       15    20   8    4.6880   476.0    4.629      49.949
2015    1       15    20  13    4.6878   475.8    4.631      49.939
2015    1       15    20  18    4.6876   475.7    4.633      49.929
2015    1       15    20  24    4.6874   475.5    4.636      49.920
2015    1       15    20  29    4.6872   475.4    4.638      49.910
2015    1       15    20  35    4.6869   475.2    4.640      49.900
2015    1       15    20  40    4.6867   475.1    4.642      49.891
2015    1       15    20  45    4.6865   474.9    4.645      49.881
2015    1       15    20  51    4.6863   474.8    4.647      49.872
2015    1       15    20  56    4.6861   474.6    4.649      49.862
2015    1       15    21   2    4.6859   474.5    4.651      49.852
2015    1       15    21   7    4.6857   474.3    4.654      49.843
2015    1       15    21  12    4.6855   474.2    4.656      49.834
2015    1       15    21  18    4.6853   474.1    4.658      49.824
2015    1       15    21  23    4.6851   473.9    4.660      49.815
2015    1       15    21  29    4.6849   473.8    4.663      49.805
2015    1       15    21  34    4.6847   473.6    4.665      49.796
2015    1       15    21  39    4.6845   473.5    4.667      49.786
2015    1       15    21  45    4.6844   473.3    4.669      49.777
2015    1       15    21  50    4.6842   473.2    4.672      49.768
2015    1       15    21  56    4.6840   473.0    4.674      49.758
2015    1       15    22   1    4.6839   472.9    4.676      49.749
2015    1       15    22   7    4.6837   472.8    4.679      49.740
2015    1       15    22  12    4.6836   472.6    4.681      49.730
2015    1       15    22  17    4.6834   472.5    4.683      49.721
2015    1       15    22  23    4.6833   472.3    4.685      49.712
2015    1       15    22  28    4.6832   472.2    4.688      49.703
2015    1       15    22  34    4.6830   472.0    4.690      49.694
2015    1       15    22  39    4.6829   471.9    4.692      49.684
2015    1       15    22  44    4.6828   471.8    4.695      49.675
2015    1       15    22  50    4.6827   471.6    4.697      49.666
2015    1       15    22  55    4.6826   471.5    4.699      49.657
2015    1       15    23   1    4.6825   471.3    4.702      49.648
2015    1       15    23   6    4.6824   471.2    4.704      49.639
2015    1       15    23  12    4.6824   471.1    4.706      49.630
2015    1       15    23  17    4.6823   470.9    4.709      49.621
2015    1       15    23  22    4.6822   470.8    4.711      49.612
2015    1       15    23  28    4.6822   470.6    4.713      49.603
2015    1       15    23  33    4.6821   470.5    4.716      49.594
2015    1       15    23  39    4.6821   470.4    4.718      49.585
2015    1       15    23  44    4.6821   470.2    4.721      49.577
2015    1       15    23  49    4.6820   470.1    4.723      49.568
2015    1       15    23  55    4.6820   470.0    4.725      49.559
2015    1       16     0   0    4.6820   469.8    4.728      49.550
2015    1       16     0   6    4.6820   469.7    4.730      49.541
2015    1       16     0  11    4.6820   469.5    4.733      49.533
2015    1       16     0  16    4.6820   469.4    4.735      49.524
2015    1       16     0  22    4.6820   469.3    4.738      49.515
2015    1       16     0  27    4.6820   469.1    4.740      49.507
2015    1       16     0  33    4.6820   469.0    4.743      49.498
2015    1       16     0  38    4.6820   468.9    4.745      49.489
2015    1       16     0  44    4.6820   468.7    4.747      49.481
2015    1       16     0  49    4.6820   468.6    4.750      49.472
2015    1       16     0  54    4.6821   468.5    4.752      49.464
2015    1       16     1   0    4.6821   468.3    4.755      49.455
2015    1       16     1   5    4.6821   468.2    4.757      49.447
2015    1       16     1  11    4.6821   468.1    4.760      49.438
2015    1       16     1  16    4.6822   467.9    4.762      49.430
2015    1       16     1  21    4.6822   467.8    4.765      49.421
2015    1       16     1  27    4.6822   467.7    4.767      49.413
2015    1       16     1  32    4.6823   467.5    4.770      49.405
2015    1       16     1  38    4.6823   467.4    4.772      49.396
2015    1       16     1  43    4.6823   467.3    4.775      49.388
2015    1       16     1  48    4.6824   467.1    4.777      49.380
2015    1       16     1  54    4.6824   467.0    4.780      49.372
2015    1       16     1  59    4.6825   466.9    4.782      49.364
2015    1       16     2   5    4.6825   466.7    4.785      49.356
2015    1       16     2  10    4.6826   466.6    4.787      49.348
2015    1       16     2  16    4.6826   466.5    4.790      49.340
2015    1       16     2  21    4.6827   466.4    4.792      49.332
2015    1       16     2  26    4.6827   466.2    4.795      49.324
2015    1       16     2  32    4.6828   466.1    4.797      49.316
2015    1       16     2  37    4.6828   466.0    4.800      49.308
2015    1       16     2  43    4.6829   465.8    4.803      49.301
2015    1       16     2  48    4.6829   465.7    4.805      49.293
2015    1       16     2  53    4.6829   465.6    4.808      49.285
2015    1       16     2  59    4.6830   465.5    4.810      49.278
2015    1       16     3   4    4.6830   465.3    4.813      49.270
2015    1       16     3  10    4.6831   465.2    4.815      49.263
2015    1       16     3  15    4.6831   465.1    4.818      49.255
2015    1       16     3  20    4.6832   465.0    4.820      49.248
2015    1       16     3  26    4.6832   464.8    4.823      49.240
2015    1       16     3  31    4.6833   464.7    4.825      49.233
2015    1       16     3  37    4.6833   464.6    4.828      49.226
2015    1       16     3  42    4.6834   464.4    4.830      49.218
2015    1       16     3  47    4.6834   464.3    4.833      49.211
2015    1       16     3  53    4.6835   464.2    4.835      49.203
2015    1       16     3  58    4.6835   464.1    4.838      49.196
2015    1       16     4   4    4.6836   463.9    4.840      49.189
2015    1       16     4   9    4.6836   463.8    4.843      49.181
2015    1       16     4  15    4.6836   463.7    4.845      49.174
2015    1       16     4  20    4.6837   463.6    4.848      49.166
2015    1       16     4  25    4.6837   463.5    4.850      49.159
2015    1       16     4  31    4.6838   463.3    4.853      49.151
2015    1       16     4  36    4.6838   463.2    4.855      49.144
2015    1       16     4  42    4.6838   463.1    4.858      49.136
2015    1       16     4  47    4.6839   463.0    4.860      49.129
2015    1       16     4  52    4.6839   462.8    4.863      49.121
2015    1       16     4  58    4.6840   462.7    4.865      49.113
2015    1       16     5   3    4.6840   462.6    4.867      49.105
2015    1       16     5   9    4.6841   462.5    4.870      49.097
2015    1       16     5  14    4.6841   462.3    4.872      49.089
2015    1       16     5  19    4.6841   462.2    4.875      49.081
2015    1       16     5  25    4.6842   462.1    4.877      49.073
2015    1       16     5  30    4.6842   462.0    4.879      49.065
2015    1       16     5  36    4.6843   461.9    4.882      49.057
2015    1       16     5  41    4.6843   461.7    4.884      49.048
2015    1       16     5  46    4.6844   461.6    4.886      49.040
2015    1       16     5  52    4.6844   461.5    4.889      49.031
2015    1       16     5  57    4.6845   461.4    4.891      49.023
2015    1       16     6   3    4.6845   461.3    4.894      49.014
2015    1       16     6   8    4.6846   461.1    4.896      49.005
2015    1       16     6  14    4.6846   461.0    4.898      48.996
2015    1       16     6  19    4.6847   460.9    4.901      48.987
2015    1       16     6  24    4.6848   460.8    4.903      48.978
2015    1       16     6  30    4.6848   460.7    4.905      48.969
2015    1       16     6  35    4.6849   460.5    4.908      48.960
2015    1       16     6  41    4.6849   460.4    4.910      48.951
2015    1       16     6  46    4.6850   460.3    4.912      48.941
2015    1       16     6  51    4.6850   460.2    4.914      48.932
2015    1       16     6  57    4.6851   460.1    4.917      48.922
2015    1       16     7   2    4.6852   459.9    4.919      48.913
2015    1       16     7   8    4.6852   459.8    4.921      48.903
2015    1       16     7  13    4.6853   459.7    4.924      48.893
2015    1       16     7  19    4.6853   459.6    4.926      48.884
2015    1       16     7  24    4.6854   459.5    4.928      48.874
2015    1       16     7  29    4.6855   459.4    4.931      48.864
2015    1       16     7  35    4.6855   459.2    4.933      48.854
2015    1       16     7  40    4.6856   459.1    4.935      48.844
2015    1       16     7  46    4.6856   459.0    4.938      48.834
2015    1       16     7  51    4.6857   458.9    4.940      48.823
2015    1       16     7  56    4.6857   458.8    4.943      48.813
2015    1       16     8   2    4.6858   458.7    4.945      48.803
2015    1       16     8   7    4.6859   458.5    4.947      48.793
2015    1       16     8  13    4.6859   458.4    4.950      48.782
2015    1       16     8  18    4.6860   458.3    4.952      48.772
2015    1       16     8  23    4.6860   458.2    4.954      48.762
2015    1       16     8  29    4.6861   458.1    4.957      48.751
2015    1       16     8  34    4.6861   458.0    4.959      48.741
2015    1       16     8  40    4.6862   457.9    4.962      48.730
2015    1       16     8  45    4.6862   457.7    4.964      48.720
2015    1       16     8  51    4.6863   457.6    4.967      48.709
2015    1       16     8  56    4.6863   457.5    4.969      48.699
2015    1       16     9   1    4.6864   457.4    4.972      48.688
2015    1       16     9   7    4.6864   457.3    4.974      48.678
2015    1       16     9  12    4.6865   457.2    4.977      48.667
2015    1       16     9  18    4.6865   457.1    4.979      48.657
2015    1       16     9  23    4.6866   456.9    4.982      48.646
2015    1       16     9  28    4.6866   456.8    4.984      48.636
2015    1       16     9  34    4.6866   456.7    4.987      48.625
2015    1       16     9  39    4.6867   456.6    4.989      48.615
2015    1       16     9  45    4.6867   456.5    4.992      48.604
2015    1       16     9  50    4.6868   456.4    4.994      48.594
2015    1       16     9  55    4.6868   456.3    4.997      48.583
2015    1       16    10   1    4.6868   456.1    4.999      48.573
2015    1       16    10   6    4.6869   456.0    5.002      48.562
2015    1       16    10  12    4.6869   455.9    5.005      48.552
2015    1       16    10  17    4.6870   455.8    5.007      48.542
2015    1       16    10  23    4.6870   455.7    5.010      48.531
2015    1       16    10  28    4.6870   455.6    5.013      48.521
2015    1       16    10  33    4.6871   455.5    5.015      48.511
2015    1       16    10  39    4.6871   455.4    5.018      48.501
2015    1       16    10  44    4.6871   455.3    5.020      48.490
2015    1       16    10  50    4.6872   455.1    5.023      48.480
2015    1       16    10  55    4.6872   455.0    5.026      48.470
2015    1       16    11   0    4.6872   454.9    5.028      48.460
2015    1       16    11   6    4.6873   454.8    5.031      48.449
2015    1       16    11  11    4.6873   454.7    5.034      48.439
2015    1       16    11  17    4.6873   454.6    5.036      48.429
2015    1       16    11  22    4.6874   454.5    5.039      48.418
2015    1       16    11  27    4.6874   454.4    5.042      48.408
2015    1       16    11  33    4.6874   454.3    5.044      48.398
2015    1       16    11  38    4.6875   454.1    5.047      48.387
2015    1       16    11  44    4.6875   454.0    5.049      48.377
2015    1       16    11  49    4.6875   453.9    5.052      48.366
2015    1       16    11  54    4.6875   453.8    5.055      48.355
2015    1       16    12   0    4.6876   453.7    5.057      48.344
2015    1       16    12   5    4.6876   453.6    5.060      48.333
2015    1       16    12  11    4.6876   453.5    5.062      48.322
2015    1       16    12  16    4.6876   453.4    5.065      48.311
2015    1       16    12  21    4.6877   453.3    5.067      48.300
2015    1       16    12  27    4.6877   453.1    5.070      48.289
2015    1       16    12  32    4.6877   453.0    5.072      48.277
2015    1       16    12  38    4.6878   452.9    5.075      48.266
2015    1       16    12  43    4.6878   452.8    5.077      48.254
2015    1       16    12  49    4.6878   452.7    5.080      48.242
2015    1       16    12  54    4.6878   452.6    5.082      48.230
2015    1       16    12  59    4.6879   452.5    5.084      48.218
2015    1       16    13   5    4.6879   452.4    5.087      48.205
2015    1       16    13  10    4.6879   452.3    5.089      48.193
2015    1       16    13  16    4.6879   452.2    5.092      48.180
2015    1       16    13  21    4.6880   452.1    5.094      48.167
2015    1       16    13  26    4.6880   451.9    5.096      48.154
2015    1       16    13  32    4.6880   451.8    5.098      48.141
2015    1       16    13  37    4.6880   451.7    5.101      48.128
2015    1       16    13  43    4.6881   451.6    5.103      48.115
2015    1       16    13  48    4.6881   451.5    5.105      48.101
2015    1       16    13  53    4.6881   451.4    5.107      48.087
2015    1       16    13  59    4.6882   451.3    5.110      48.074
2015    1       16    14   4    4.6882   451.2    5.112      48.060
2015    1       16    14  10    4.6882   451.1    5.114      48.045
2015    1       16    14  15    4.6882   451.0    5.116      48.031
2015    1       16    14  21    4.6882   450.9    5.118      48.017
2015    1       16    14  26    4.6883   450.7    5.120      48.002
2015    1       16    14  31    4.6883   450.6    5.123      47.988
2015    1       16    14  37    4.6883   450.5    5.125      47.973
2015    1       16    14  42    4.6883   450.4    5.127      47.958
2015    1       16    14  48    4.6883   450.3    5.129      47.943
2015    1       16    14  53    4.6883   450.2    5.131      47.928
2015    1       16    14  58    4.6884   450.1    5.133      47.913
2015    1       16    15   4    4.6884   450.0    5.135      47.898
2015    1       16    15   9    4.6884   449.9    5.138      47.882
2015    1       16    15  15    4.6884   449.8    5.140      47.867
2015    1       16    15  20    4.6884   449.7    5.142      47.851
2015    1       16    15  26    4.6884   449.5    5.144      47.836
2015    1       16    15  31    4.6884   449.4    5.146      47.820
2015    1       16    15  36    4.6885   449.3    5.148      47.805
2015    1       16    15  42    4.6885   449.2    5.150      47.789
2015    1       16    15  47    4.6885   449.1    5.153      47.773
2015    1       16    15  53    4.6885   449.0    5.155      47.758
2015    1       16    15  58    4.6885   448.9    5.157      47.742
2015    1       16    16   3    4.6885   448.8    5.159      47.726
2015    1       16    16   9    4.6885   448.7    5.161      47.710
2015    1       16    16  14    4.6886   448.6    5.164      47.694
2015    1       16    16  20    4.6886   448.5    5.166      47.678
2015    1       16    16  25    4.6886   448.4    5.168      47.663
2015    1       16    16  30    4.6886   448.2    5.170      47.647
2015    1       16    16  36    4.6886   448.1    5.172      47.631
2015    1       16    16  41    4.6886   448.0    5.175      47.615
2015    1       16    16  47    4.6886   447.9    5.177      47.599
2015    1       16    16  52    4.6886   447.8    5.179      47.583
2015    1       16    16  58    4.6886   447.7    5.182      47.567
2015    1       16    17   3    4.6886   447.6    5.184      47.551
2015    1       16    17   8    4.6886   447.5    5.186      47.535
2015    1       16    17  14    4.6885   447.4    5.189      47.519
2015    1       16    17  19    4.6885   447.3    5.191      47.503
2015    1       16    17  25    4.6885   447.2    5.193      47.487
2015    1       16    17  30    4.6885   447.1    5.196      47.471
2015    1       16    17  35    4.6885   447.0    5.198      47.454
2015    1       16    17  41    4.6884   446.9    5.200      47.438
2015    1       16    17  46    4.6884   446.8    5.203      47.422
2015    1       16    17  52    4.6884   446.6    5.205      47.406
2015    1       16    17  57    4.6883   446.5    5.207      47.390
2015    1       16    18   2    4.6883   446.4    5.210      47.374
2015    1       16    18   8    4.6882   446.3    5.212      47.357
2015    1       16    18  13    4.6882   446.2    5.215      47.341
2015    1       16    18  19    4.6881   446.1    5.217      47.325
2015    1       16    18  24    4.6881   446.0    5.220      47.308
2015    1       16    18  29    4.6880   445.9    5.222      47.292
2015    1       16    18  35    4.6880   445.8    5.224      47.276
2015    1       16    18  40    4.6879   445.7    5.227      47.259
2015    1       16    18  46    4.6878   445.6    5.229      47.242
2015    1       16    18  51    4.6878   445.5    5.232      47.226
2015    1       16    18  56    4.6877   445.4    5.234      47.209
2015    1       16    19   2    4.6876   445.3    5.237      47.193
2015    1       16    19   7    4.6875   445.1    5.239      47.176
2015    1       16    19  13    4.6875   445.0    5.241      47.159
2015    1       16    19  18    4.6874   444.9    5.244      47.142
2015    1       16    19  24    4.6873   444.8    5.246      47.125
2015    1       16    19  29    4.6872   444.7    5.249      47.108
2015    1       16    19  34    4.6871   444.6    5.251      47.091
2015    1       16    19  40    4.6870   444.5    5.254      47.074
2015    1       16    19  45    4.6869   444.4    5.256      47.057
2015    1       16    19  51    4.6868   444.3    5.259      47.039
2015    1       16    19  56    4.6867   444.2    5.261      47.022
2015    1       16    20   1    4.6866   444.1    5.263      47.005
2015    1       16    20   7    4.6865   444.0    5.266      46.987
2015    1       16    20  12    4.6864   443.8    5.268      46.969
2015    1       16    20  18    4.6863   443.7    5.271      46.951
2015    1       16    20  23    4.6862   443.6    5.273      46.934
2015    1       16    20  28    4.6861   443.5    5.276      46.916
2015    1       16    20  34    4.6860   443.4    5.278      46.898
2015    1       16    20  39    4.6859   443.3    5.280      46.879
2015    1       16    20  45    4.6858   443.2    5.283      46.861
2015    1       16    20  50    4.6857   443.1    5.285      46.843
2015    1       16    20  56    4.6856   443.0    5.288      46.824
2015    1       16    21   1    4.6855   442.9    5.290      46.805
2015    1       16    21   6    4.6854   442.8    5.292      46.787
2015    1       16    21  12    4.6853   442.6    5.295      46.768
2015    1       16    21  17    4.6851   442.5    5.297      46.749
2015    1       16    21  23    4.6850   442.4    5.299      46.730
2015    1       16    21  28    4.6849   442.3    5.302      46.711
2015    1       16    21  33    4.6848   442.2    5.304      46.691
2015    1       16    21  39    4.6847   442.1    5.306      46.672
2015    1       16    21  44    4.6845   442.0    5.309      46.652
2015    1       16    21  50    4.6844   441.9    5.311      46.633
2015    1       16    21  55    4.6843   441.8    5.313      46.613
2015    1       16    22   0    4.6841   441.6    5.315      46.593
2015    1       16    22   6    4.6840   441.5    5.318      46.573
2015    1       16    22  11    4.6839   441.4    5.320      46.553
2015    1       16    22  17    4.6837   441.3    5.322      46.533
2015    1       16    22  22    4.6836   441.2    5.324      46.513
2015    1       16    22  28    4.6835   441.1    5.327      46.492
2015    1       16    22  33    4.6833   441.0    5.329      46.472
2015    1       16    22  38    4.6832   440.9    5.331      46.451
2015    1       16    22  44    4.6830   440.7    5.333      46.431
2015    1       16    22  49    4.6829   440.6    5.336      46.410
2015    1       16    22  55    4.6828   440.5    5.338      46.390
2015    1       16    23   0    4.6826   440.4    5.340      46.369
2015    1       16    23   5    4.6825   440.3    5.342      46.348
2015    1       16    23  11    4.6824   440.2    5.344      46.327
2015    1       16    23  16    4.6822   440.1    5.347      46.306
2015    1       16    23  22    4.6821   440.0    5.349      46.286
2015    1       16    23  27    4.6819   439.8    5.351      46.265
2015    1       16    23  33    4.6818   439.7    5.353      46.244
2015    1       16    23  38    4.6817   439.6    5.355      46.223
2015    1       16    23  43    4.6815   439.5    5.358      46.202
2015    1       16    23  49    4.6814   439.4    5.360      46.181
2015    1       16    23  54    4.6813   439.3    5.362      46.160
2015    1       17     0   0    4.6812   439.2    5.364      46.139
2015    1       17     0   5    4.6810   439.1    5.367      46.118
2015    1       17     0  10    4.6809   438.9    5.369      46.097
2015    1       17     0  16    4.6808   438.8    5.371      46.076
2015    1       17     0  21    4.6807   438.7    5.373      46.055
2015    1       17     0  27    4.6806   438.6    5.376      46.034
2015    1       17     0  32    4.6805   438.5    5.378      46.013
2015    1       17     0  37    4.6804   438.4    5.380      45.992
2015    1       17     0  43    4.6803   438.3    5.382      45.971
2015    1       17     0  48    4.6802   438.2    5.385      45.949
2015    1       17     0  54    4.6801   438.1    5.387      45.928
2015    1       17     0  59    4.6800   437.9    5.389      45.907
2015    1       17     1   4    4.6799   437.8    5.392      45.886
2015    1       17     1  10    4.6798   437.7    5.394      45.865
2015    1       17     1  15    4.6797   437.6    5.396      45.844
2015    1       17     1  21    4.6796   437.5    5.399      45.823
2015    1       17     1  26    4.6796   437.4    5.401      45.802
2015    1       17     1  32    4.6795   437.3    5.404      45.781
2015    1       17     1  37    4.6794   437.2    5.406      45.760
2015    1       17     1  42    4.6794   437.0    5.408      45.738
2015    1       17     1  48    4.6793   436.9    5.411      45.717
2015    1       17     1  53    4.6792   436.8    5.413      45.696
2015    1       17     1  59    4.6792   436.7    5.416      45.675
2015    1       17     2   4    4.6791   436.6    5.418      45.653
2015    1       17     2   9    4.6791   436.5    5.421      45.632
2015    1       17     2  15    4.6790   436.4    5.423      45.611
2015    1       17     2  20    4.6790   436.3    5.426      45.589
2015    1       17     2  26    4.6790   436.2    5.428      45.568
2015    1       17     2  31    4.6789   436.0    5.431      45.546
2015    1       17     2  36    4.6789   435.9    5.433      45.525
2015    1       17     2  42    4.6788   435.8    5.436      45.503
2015    1       17     2  47    4.6788   435.7    5.438      45.481
2015    1       17     2  53    4.6788   435.6    5.441      45.460
2015    1       17     2  58    4.6787   435.5    5.443      45.438
2015    1       17     3   3    4.6787   435.4    5.446      45.416
2015    1       17     3   9    4.6787   435.3    5.449      45.394
2015    1       17     3  14    4.6787   435.2    5.451      45.372
2015    1       17     3  20    4.6786   435.0    5.454      45.350
2015    1       17     3  25    4.6786   434.9    5.457      45.328
2015    1       17     3  31    4.6786   434.8    5.459      45.306
2015    1       17     3  36    4.6786   434.7    5.462      45.283
2015    1       17     3  41    4.6786   434.6    5.465      45.261
2015    1       17     3  47    4.6786   434.5    5.467      45.238
2015    1       17     3  52    4.6786   434.4    5.470      45.216
2015    1       17     3  58    4.6786   434.3    5.473      45.193
2015    1       17     4   3    4.6786   434.1    5.475      45.170
2015    1       17     4   8    4.6786   434.0    5.478      45.148
2015    1       17     4  14    4.6786   433.9    5.481      45.125
2015    1       17     4  19    4.6786   433.8    5.484      45.102
2015    1       17     4  25    4.6786   433.7    5.486      45.079
2015    1       17     4  30    4.6786   433.6    5.489      45.056
2015    1       17     4  35    4.6786   433.5    5.492      45.032
2015    1       17     4  41    4.6787   433.3    5.495      45.009
2015    1       17     4  46    4.6787   433.2    5.498      44.986
2015    1       17     4  52    4.6787   433.1    5.500      44.962
2015    1       17     4  57    4.6788   433.0    5.503      44.939
2015    1       17     5   3    4.6788   432.9    5.506      44.915
2015    1       17     5   8    4.6789   432.8    5.509      44.892
2015    1       17     5  13    4.6789   432.7    5.512      44.868
2015    1       17     5  19    4.6790   432.5    5.515      44.844
2015    1       17     5  24    4.6791   432.4    5.518      44.820
2015    1       17     5  30    4.6792   432.3    5.521      44.797
2015    1       17     5  35    4.6793   432.2    5.523      44.773
2015    1       17     5  40    4.6794   432.1    5.526      44.749
2015    1       17     5  46    4.6795   432.0    5.529      44.724
2015    1       17     5  51    4.6796   431.9    5.532      44.700
2015    1       17     5  57    4.6797   431.7    5.535      44.676
2015    1       17     6   2    4.6799   431.6    5.538      44.652
2015    1       17     6   8    4.6800   431.5    5.541      44.628
2015    1       17     6  13    4.6802   431.4    5.544      44.603
2015    1       17     6  18    4.6803   431.3    5.547      44.579
2015    1       17     6  24    4.6805   431.2    5.550      44.555
2015    1       17     6  29    4.6807   431.1    5.553      44.531
2015    1       17     6  35    4.6809   430.9    5.556      44.506
2015    1       17     6  40    4.6811   430.8    5.559      44.482
2015    1       17     6  45    4.6814   430.7    5.562      44.457
2015    1       17     6  51    4.6816   430.6    5.565      44.433
2015    1       17     6  56    4.6819   430.5    5.568      44.408
2015    1       17     7   2    4.6822   430.4    5.571      44.383
2015    1       17     7   7    4.6824   430.2    5.574      44.359
2015    1       17     7  12    4.6827   430.1    5.577      44.334
2015    1       17     7  18    4.6830   430.0    5.580      44.309
2015    1       17     7  23    4.6833   429.9    5.583      44.285
2015    1       17     7  29    4.6837   429.8    5.586      44.260
2015    1       17     7  34    4.6840   429.7    5.589      44.236
2015    1       17     7  40    4.6844   429.5    5.592      44.211
2015    1       17     7  45    4.6848   429.4    5.595      44.186
2015    1       17     7  50    4.6852   429.3    5.598      44.161
2015    1       17     7  56    4.6856   429.2    5.601      44.136
2015    1       17     8   1    4.6860   429.1    5.604      44.111
2015    1       17     8   7    4.6864   429.0    5.607      44.087
2015    1       17     8  12    4.6868   428.8    5.610      44.062
2015    1       17     8  17    4.6873   428.7    5.613      44.037
2015    1       17     8  23    4.6878   428.6    5.616      44.012
2015    1       17     8  28    4.6882   428.5    5.619      43.987
2015    1       17     8  34    4.6887   428.4    5.623      43.962
2015    1       17     8  39    4.6892   428.3    5.626      43.937
2015    1       17     8  44    4.6897   428.1    5.629      43.912
2015    1       17     8  50    4.6903   428.0    5.632      43.887
2015    1       17     8  55    4.6908   427.9    5.635      43.862
2015    1       17     9   1    4.6914   427.8    5.638      43.837
2015    1       17     9   6    4.6919   427.7    5.641      43.812
2015    1       17     9  11    4.6925   427.5    5.644      43.787
2015    1       17     9  17    4.6931   427.4    5.647      43.762
2015    1       17     9  22    4.6937   427.3    5.650      43.737
2015    1       17     9  28    4.6943   427.2    5.653      43.712
2015    1       17     9  33    4.6949   427.1    5.656      43.687
2015    1       17     9  38    4.6956   426.9    5.659      43.662
2015    1       17     9  44    4.6962   426.8    5.662      43.637
2015    1       17     9  49    4.6969   426.7    5.665      43.611
2015    1       17     9  55    4.6975   426.6    5.668      43.586
2015    1       17    10   0    4.6982   426.5    5.671      43.561
2015    1       17    10   6    4.6989   426.3    5.674      43.536
2015    1       17    10  11    4.6996   426.2    5.678      43.511
2015    1       17    10  16    4.7004   426.1    5.681      43.486
2015    1       17    10  22    4.7011   426.0    5.684      43.460
2015    1       17    10  27    4.7018   425.9    5.687      43.435
2015    1       17    10  33    4.7026   425.7    5.690      43.410
2015    1       17    10  38    4.7033   425.6    5.693      43.384
2015    1       17    10  43    4.7041   425.5    5.697      43.359
2015    1       17    10  49    4.7049   425.4    5.700      43.334
2015    1       17    10  54    4.7057   425.3    5.703      43.308
2015    1       17    11   0    4.7065   425.1    5.706      43.283
2015    1       17    11   5    4.7073   425.0    5.710      43.257
2015    1       17    11  10    4.7081   424.9    5.713      43.232
2015    1       17    11  16    4.7090   424.8    5.716      43.206
2015    1       17    11  21    4.7098   424.6    5.720      43.181
2015    1       17    11  27    4.7106   424.5    5.723      43.155
2015    1       17    11  32    4.7115   424.4    5.726      43.129
2015    1       17    11  38    4.7124   424.3    5.730      43.103
2015    1       17    11  43    4.7132   424.2    5.733      43.078
2015    1       17    11  48    4.7141   424.0    5.737      43.052
2015    1       17    11  54    4.7150   423.9    5.740      43.026
2015    1       17    11  59    4.7159   423.8    5.744      43.000
2015    1       17    12   5    4.7168   423.7    5.747      42.974
2015    1       17    12  10    4.7177   423.5    5.751      42.948
2015    1       17    12  15    4.7187   423.4    5.754      42.922
2015    1       17    12  21    4.7196   423.3    5.758      42.896
2015    1       17    12  26    4.7206   423.2    5.762      42.870
2015    1       17    12  32    4.7215   423.1    5.765      42.844
2015    1       17    12  37    4.7225   422.9    5.769      42.818
2015    1       17    12  43    4.7234   422.8    5.773      42.792
2015    1       17    12  48    4.7244   422.7    5.777      42.766
2015    1       17    12  53    4.7254   422.6    5.780      42.740
2015    1       17    12  59    4.7264   422.4    5.784      42.714
2015    1       17    13   4    4.7275   422.3    5.788      42.688
2015    1       17    13  10    4.7285   422.2    5.792      42.662
2015    1       17    13  15    4.7295   422.1    5.796      42.636
2015    1       17    13  20    4.7306   421.9    5.800      42.610
2015    1       17    13  26    4.7316   421.8    5.804      42.584
2015    1       17    13  31    4.7327   421.7    5.808      42.559
2015    1       17    13  37    4.7338   421.6    5.812      42.533
2015    1       17    13  42    4.7349   421.4    5.816      42.507
2015    1       17    13  47    4.7360   421.3    5.820      42.481
2015    1       17    13  53    4.7372   421.2    5.824      42.456
2015    1       17    13  58    4.7383   421.1    5.829      42.431
2015    1       17    14   4    4.7395   420.9    5.833      42.405
2015    1       17    14   9    4.7407   420.8    5.837      42.380
2015    1       17    14  15    4.7419   420.7    5.842      42.355
2015    1       17    14  20    4.7431   420.6    5.846      42.330
2015    1       17    14  25    4.7444   420.4    5.851      42.305
2015    1       17    14  31    4.7457   420.3    5.855      42.280
2015    1       17    14  36    4.7470   420.2    5.860      42.255
2015    1       17    14  42    4.7483   420.1    5.865      42.231
2015    1       17    14  47    4.7496   419.9    5.869      42.206
2015    1       17    14  52    4.7509   419.8    5.874      42.182
2015    1       17    14  58    4.7523   419.7    5.879      42.158
2015    1       17    15   3    4.7537   419.6    5.884      42.134
2015    1       17    15   9    4.7551   419.5    5.889      42.110
2015    1       17    15  14    4.7565   419.3    5.894      42.086
2015    1       17    15  19    4.7580   419.2    5.899      42.062
2015    1       17    15  25    4.7595   419.1    5.904      42.039
2015    1       17    15  30    4.7610   419.0    5.909      42.015
2015    1       17    15  36    4.7625   418.8    5.915      41.992
2015    1       17    15  41    4.7641   418.7    5.920      41.969
2015    1       17    15  46    4.7656   418.6    5.925      41.946
2015    1       17    15  52    4.7672   418.5    5.931      41.923
2015    1       17    15  57    4.7688   418.3    5.936      41.901
2015    1       17    16   3    4.7705   418.2    5.942      41.878
2015    1       17    16   8    4.7721   418.1    5.947      41.856
2015    1       17    16  14    4.7738   418.0    5.953      41.833
2015    1       17    16  19    4.7755   417.9    5.959      41.811
2015    1       17    16  24    4.7773   417.7    5.965      41.789
2015    1       17    16  30    4.7790   417.6    5.970      41.767
2015    1       17    16  35    4.7808   417.5    5.976      41.746
2015    1       17    16  41    4.7826   417.4    5.982      41.724
2015    1       17    16  46    4.7844   417.3    5.988      41.703
2015    1       17    16  51    4.7862   417.1    5.994      41.681
2015    1       17    16  57    4.7881   417.0    6.000      41.660
2015    1       17    17   2    4.7900   416.9    6.006      41.639
2015    1       17    17   8    4.7918   416.8    6.013      41.618
2015    1       17    17  13    4.7937   416.6    6.019      41.597
2015    1       17    17  18    4.7957   416.5    6.025      41.576
2015    1       17    17  24    4.7976   416.4    6.031      41.555
2015    1       17    17  29    4.7995   416.3    6.038      41.535
2015    1       17    17  35    4.8015   416.2    6.044      41.514
2015    1       17    17  40    4.8035   416.1    6.051      41.493
2015    1       17    17  45    4.8055   415.9    6.057      41.473
2015    1       17    17  51    4.8075   415.8    6.064      41.453
2015    1       17    17  56    4.8095   415.7    6.070      41.432
2015    1       17    18   2    4.8116   415.6    6.077      41.412
2015    1       17    18   7    4.8136   415.5    6.083      41.392
2015    1       17    18  13    4.8157   415.3    6.090      41.372
2015    1       17    18  18    4.8178   415.2    6.097      41.352
2015    1       17    18  23    4.8199   415.1    6.103      41.332
2015    1       17    18  29    4.8220   415.0    6.110      41.312
2015    1       17    18  34    4.8241   414.9    6.117      41.292
2015    1       17    18  40    4.8262   414.7    6.124      41.272
2015    1       17    18  45    4.8284   414.6    6.130      41.253
2015    1       17    18  50    4.8305   414.5    6.137      41.233
2015    1       17    18  56    4.8327   414.4    6.144      41.214
2015    1       17    19   1    4.8349   414.3    6.151      41.194
2015    1       17    19   7    4.8371   414.1    6.158      41.175
2015    1       17    19  12    4.8393   414.0    6.165      41.156
2015    1       17    19  17    4.8416   413.9    6.172      41.137
2015    1       17    19  23    4.8438   413.8    6.179      41.118
2015    1       17    19  28    4.8461   413.7    6.186      41.099
2015    1       17    19  34    4.8484   413.6    6.193      41.080
2015    1       17    19  39    4.8507   413.4    6.200      41.061
2015    1       17    19  45    4.8530   413.3    6.207      41.042
2015    1       17    19  50    4.8553   413.2    6.214      41.024
2015    1       17    19  55    4.8577   413.1    6.221      41.005
2015    1       17    20   1    4.8601   413.0    6.229      40.987
2015    1       17    20   6    4.8624   412.8    6.236      40.969
2015    1       17    20  12    4.8648   412.7    6.243      40.951
2015    1       17    20  17    4.8673   412.6    6.250      40.933
2015    1       17    20  22    4.8697   412.5    6.258      40.915
2015    1       17    20  28    4.8722   412.4    6.265      40.898
2015    1       17    20  33    4.8747   412.3    6.272      40.880
2015    1       17    20  39    4.8772   412.2    6.280      40.862
2015    1       17    20  44    4.8797   412.0    6.287      40.845
2015    1       17    20  50    4.8823   411.9    6.295      40.828
2015    1       17    20  55    4.8848   411.8    6.302      40.811
2015    1       17    21   0    4.8874   411.7    6.309      40.794
2015    1       17    21   6    4.8900   411.6    6.317      40.777
2015    1       17    21  11    4.8927   411.5    6.324      40.761
2015    1       17    21  17    4.8953   411.4    6.332      40.744
2015    1       17    21  22    4.8980   411.2    6.340      40.728
2015    1       17    21  27    4.9007   411.1    6.347      40.712
2015    1       17    21  33    4.9034   411.0    6.355      40.695
2015    1       17    21  38    4.9061   410.9    6.363      40.679
2015    1       17    21  44    4.9089   410.8    6.370      40.664
2015    1       17    21  49    4.9117   410.7    6.378      40.648
2015    1       17    21  54    4.9145   410.6    6.386      40.633
2015    1       17    22   0    4.9173   410.5    6.394      40.617
2015    1       17    22   5    4.9202   410.4    6.402      40.602
2015    1       17    22  11    4.9230   410.2    6.409      40.587
2015    1       17    22  16    4.9259   410.1    6.417      40.572
2015    1       17    22  22    4.9288   410.0    6.425      40.558
2015    1       17    22  27    4.9318   409.9    6.433      40.543
2015    1       17    22  32    4.9348   409.8    6.441      40.529
2015    1       17    22  38    4.9377   409.7    6.450      40.514
2015    1       17    22  43    4.9407   409.6    6.458      40.501
2015    1       17    22  49    4.9438   409.5    6.466      40.487
2015    1       17    22  54    4.9468   409.4    6.474      40.473
2015    1       17    22  59    4.9499   409.3    6.482      40.460
2015    1       17    23   5    4.9530   409.2    6.491      40.446
2015    1       17    23  10    4.9562   409.1    6.499      40.433
2015    1       17    23  16    4.9593   409.0    6.507      40.420
2015    1       17    23  21    4.9625   408.8    6.516      40.408
2015    1       17    23  26    4.9657   408.7    6.524      40.395
2015    1       17    23  32    4.9689   408.6    6.533      40.383
2015    1       17    23  37    4.9722   408.5    6.541      40.371
2015    1       17    23  43    4.9754   408.4    6.550      40.359
2015    1       17    23  48    4.9787   408.3    6.558      40.347
2015    1       17    23  53    4.9821   408.2    6.567      40.336
2015    1       17    23  59    4.9854   408.1    6.576      40.325
2015    1       18     0   4    4.9888   408.0    6.584      40.314
2015    1       18     0  10    4.9922   407.9    6.593      40.303
2015    1       18     0  15    4.9956   407.8    6.602      40.292
2015    1       18     0  20    4.9991   407.7    6.611      40.282
2015    1       18     0  26    5.0026   407.6    6.620      40.272
2015    1       18     0  31    5.0060   407.5    6.629      40.262
2015    1       18     0  37    5.0096   407.4    6.638      40.252
2015    1       18     0  42    5.0131   407.3    6.647      40.243
2015    1       18     0  48    5.0167   407.2    6.655      40.234
2015    1       18     0  53    5.0202   407.1    6.664      40.225
2015    1       18     0  58    5.0239   407.0    6.674      40.216
2015    1       18     1   4    5.0275   406.9    6.683      40.207
2015    1       18     1   9    5.0311   406.8    6.692      40.199
2015    1       18     1  15    5.0347   406.7    6.701      40.191
2015    1       18     1  20    5.0384   406.6    6.710      40.183
2015    1       18     1  25    5.0421   406.5    6.719      40.175
2015    1       18     1  31    5.0458   406.4    6.728      40.167
2015    1       18     1  36    5.0495   406.3    6.737      40.160
2015    1       18     1  42    5.0532   406.2    6.746      40.153
2015    1       18     1  47    5.0569   406.1    6.755      40.145
2015    1       18     1  52    5.0607   406.0    6.764      40.139
2015    1       18     1  58    5.0645   405.9    6.773      40.132
2015    1       18     2   3    5.0682   405.8    6.782      40.126
2015    1       18     2   9    5.0720   405.8    6.791      40.119
2015    1       18     2  14    5.0758   405.7    6.800      40.113
2015    1       18     2  20    5.0796   405.6    6.810      40.107
2015    1       18     2  25    5.0835   405.5    6.819      40.101
2015    1       18     2  30    5.0873   405.4    6.828      40.096
2015    1       18     2  36    5.0911   405.3    6.837      40.090
2015    1       18     2  41    5.0950   405.2    6.846      40.085
2015    1       18     2  47    5.0989   405.1    6.855      40.081
2015    1       18     2  52    5.1028   405.0    6.864      40.076
2015    1       18     2  57    5.1067   404.9    6.873      40.071
2015    1       18     3   3    5.1106   404.8    6.882      40.067
2015    1       18     3   8    5.1146   404.7    6.891      40.063
2015    1       18     3  14    5.1185   404.6    6.900      40.059
2015    1       18     3  19    5.1225   404.6    6.909      40.055
2015    1       18     3  25    5.1265   404.5    6.918      40.052
2015    1       18     3  30    5.1305   404.4    6.927      40.049
2015    1       18     3  35    5.1345   404.3    6.936      40.046
2015    1       18     3  41    5.1386   404.2    6.945      40.043
2015    1       18     3  46    5.1426   404.1    6.954      40.041
2015    1       18     3  52    5.1467   404.0    6.964      40.039
2015    1       18     3  57    5.1508   403.9    6.973      40.037
2015    1       18     4   2    5.1550   403.9    6.982      40.036
2015    1       18     4   8    5.1591   403.8    6.991      40.035
2015    1       18     4  13    5.1633   403.7    7.000      40.034
2015    1       18     4  19    5.1675   403.6    7.010      40.033
2015    1       18     4  24    5.1718   403.5    7.019      40.033
2015    1       18     4  29    5.1760   403.4    7.028      40.033
2015    1       18     4  35    5.1803   403.4    7.037      40.033
2015    1       18     4  40    5.1846   403.3    7.047      40.034
2015    1       18     4  46    5.1890   403.2    7.056      40.035
2015    1       18     4  51    5.1933   403.1    7.066      40.036
2015    1       18     4  57    5.1977   403.0    7.075      40.038
2015    1       18     5   2    5.2021   403.0    7.085      40.040
2015    1       18     5   7    5.2066   402.9    7.094      40.042
2015    1       18     5  13    5.2111   402.8    7.104      40.044
2015    1       18     5  18    5.2156   402.7    7.114      40.047
2015    1       18     5  24    5.2201   402.6    7.123      40.050
2015    1       18     5  29    5.2247   402.6    7.133      40.054
2015    1       18     5  34    5.2293   402.5    7.143      40.058
2015    1       18     5  40    5.2340   402.4    7.153      40.062
2015    1       18     5  45    5.2386   402.3    7.163      40.066
2015    1       18     5  51    5.2433   402.3    7.173      40.070
2015    1       18     5  56    5.2480   402.2    7.183      40.075
2015    1       18     6   1    5.2528   402.1    7.192      40.080
2015    1       18     6   7    5.2576   402.1    7.202      40.085
2015    1       18     6  12    5.2624   402.0    7.213      40.090
2015    1       18     6  18    5.2672   401.9    7.223      40.095
2015    1       18     6  23    5.2721   401.8    7.233      40.100
2015    1       18     6  29    5.2770   401.8    7.243      40.106
2015    1       18     6  34    5.2819   401.7    7.253      40.111
2015    1       18     6  39    5.2869   401.6    7.263      40.117
2015    1       18     6  45    5.2918   401.6    7.273      40.123
2015    1       18     6  50    5.2968   401.5    7.284      40.129
2015    1       18     6  56    5.3019   401.4    7.294      40.135
2015    1       18     7   1    5.3069   401.4    7.304      40.141
2015    1       18     7   6    5.3120   401.3    7.314      40.147
2015    1       18     7  12    5.3172   401.2    7.324      40.154
2015    1       18     7  17    5.3223   401.2    7.335      40.160
2015    1       18     7  23    5.3275   401.1    7.345      40.166
2015    1       18     7  28    5.3328   401.1    7.355      40.173
2015    1       18     7  33    5.3380   401.0    7.365      40.180
2015    1       18     7  39    5.3433   400.9    7.375      40.187
2015    1       18     7  44    5.3486   400.9    7.385      40.194
2015    1       18     7  50    5.3539   400.8    7.395      40.202
2015    1       18     7  55    5.3593   400.8    7.405      40.210
2015    1       18     8   0    5.3646   400.7    7.415      40.218
2015    1       18     8   6    5.3700   400.7    7.424      40.227
2015    1       18     8  11    5.3754   400.6    7.434      40.236
2015    1       18     8  17    5.3808   400.5    7.443      40.245
2015    1       18     8  22    5.3862   400.5    7.453      40.255
2015    1       18     8  27    5.3916   400.4    7.462      40.264
2015    1       18     8  33    5.3970   400.4    7.471      40.274
2015    1       18     8  38    5.4024   400.3    7.480      40.283
2015    1       18     8  44    5.4078   400.3    7.489      40.293
2015    1       18     8  49    5.4132   400.2    7.498      40.303
2015    1       18     8  55    5.4187   400.2    7.506      40.313
2015    1       18     9   0    5.4241   400.1    7.515      40.323
2015    1       18     9   5    5.4296   400.1    7.524      40.333
2015    1       18     9  11    5.4350   400.0    7.532      40.343
2015    1       18     9  16    5.4405   400.0    7.541      40.353
2015    1       18     9  22    5.4459   399.9    7.549      40.364
2015    1       18     9  27    5.4514   399.9    7.557      40.374
2015    1       18     9  32    5.4568   399.8    7.565      40.384
2015    1       18     9  38    5.4623   399.8    7.573      40.394
2015    1       18     9  43    5.4678   399.7    7.581      40.405
2015    1       18     9  49    5.4733   399.7    7.589      40.415
2015    1       18     9  54    5.4788   399.7    7.597      40.425
2015    1       18    10   0    5.4843   399.6    7.605      40.436
2015    1       18    10   5    5.4897   399.6    7.613      40.446
2015    1       18    10  10    5.4953   399.5    7.621      40.457
2015    1       18    10  16    5.5008   399.5    7.629      40.468
2015    1       18    10  21    5.5063   399.4    7.636      40.478
2015    1       18    10  27    5.5118   399.4    7.644      40.489
2015    1       18    10  32    5.5173   399.4    7.652      40.499
2015    1       18    10  37    5.5229   399.3    7.659      40.510
2015    1       18    10  43    5.5284   399.3    7.667      40.521
2015    1       18    10  48    5.5339   399.2    7.674      40.532
2015    1       18    10  54    5.5395   399.2    7.682      40.543
2015    1       18    10  59    5.5451   399.2    7.689      40.554
2015    1       18    11   4    5.5507   399.1    7.697      40.565
2015    1       18    11  10    5.5562   399.1    7.704      40.576
2015    1       18    11  15    5.5618   399.0    7.712      40.588
2015    1       18    11  21    5.5674   399.0    7.719      40.599
2015    1       18    11  26    5.5731   399.0    7.727      40.611
2015    1       18    11  32    5.5787   398.9    7.734      40.623
2015    1       18    11  37    5.5843   398.9    7.741      40.635
2015    1       18    11  42    5.5900   398.9    7.749      40.647
2015    1       18    11  48    5.5957   398.8    7.756      40.660
2015    1       18    11  53    5.6014   398.8    7.764      40.672
2015    1       18    11  59    5.6071   398.8    7.771      40.685
2015    1       18    12   4    5.6128   398.7    7.779      40.699
2015    1       18    12   9    5.6186   398.7    7.786      40.712
2015    1       18    12  15    5.6243   398.7    7.794      40.726
2015    1       18    12  20    5.6301   398.6    7.801      40.740
2015    1       18    12  26    5.6359   398.6    7.809      40.754
2015    1       18    12  31    5.6418   398.6    7.816      40.769
2015    1       18    12  36    5.6476   398.6    7.824      40.784
2015    1       18    12  42    5.6535   398.5    7.832      40.799
2015    1       18    12  47    5.6593   398.5    7.839      40.815
2015    1       18    12  53    5.6653   398.5    7.847      40.830
2015    1       18    12  58    5.6712   398.4    7.855      40.846
2015    1       18    13   4    5.6772   398.4    7.863      40.863
2015    1       18    13   9    5.6832   398.4    7.870      40.880
2015    1       18    13  14    5.6892   398.4    7.878      40.897
2015    1       18    13  20    5.6953   398.4    7.886      40.914
2015    1       18    13  25    5.7013   398.3    7.895      40.932
2015    1       18    13  31    5.7074   398.3    7.903      40.950
2015    1       18    13  36    5.7136   398.3    7.911      40.968
2015    1       18    13  41    5.7198   398.3    7.919      40.987
2015    1       18    13  47    5.7260   398.3    7.928      41.006
2015    1       18    13  52    5.7322   398.2    7.936      41.025
2015    1       18    13  58    5.7385   398.2    7.945      41.044
2015    1       18    14   3    5.7447   398.2    7.953      41.064
2015    1       18    14   8    5.7511   398.2    7.962      41.084
2015    1       18    14  14    5.7575   398.2    7.971      41.103
2015    1       18    14  19    5.7639   398.2    7.980      41.124
2015    1       18    14  25    5.7704   398.1    7.989      41.144
2015    1       18    14  30    5.7769   398.1    7.999      41.165
2015    1       18    14  35    5.7835   398.1    8.008      41.185
2015    1       18    14  41    5.7901   398.1    8.018      41.206
2015    1       18    14  46    5.7968   398.1    8.028      41.228
2015    1       18    14  52    5.8036   398.1    8.038      41.250
2015    1       18    14  57    5.8103   398.1    8.048      41.272
2015    1       18    15   2    5.8172   398.0    8.058      41.294
2015    1       18    15   8    5.8240   398.0    8.069      41.316
2015    1       18    15  13    5.8309   398.0    8.079      41.340
2015    1       18    15  19    5.8378   398.0    8.090      41.364
2015    1       18    15  24    5.8447   398.0    8.101      41.389
2015    1       18    15  30    5.8516   398.0    8.111      41.416
2015    1       18    15  35    5.8585   398.0    8.122      41.445
2015    1       18    15  40    5.8654   398.0    8.132      41.475
2015    1       18    15  46    5.8722   398.0    8.143      41.506
2015    1       18    15  51    5.8790   398.0    8.153      41.539
2015    1       18    15  57    5.8858   398.0    8.163      41.574
2015    1       18    16   2    5.8925   398.0    8.173      41.609
2015    1       18    16   7    5.8993   398.1    8.182      41.646
2015    1       18    16  13    5.9059   398.1    8.192      41.683
2015    1       18    16  18    5.9126   398.1    8.201      41.720
2015    1       18    16  24    5.9192   398.1    8.210      41.757
2015    1       18    16  29    5.9257   398.1    8.219      41.794
2015    1       18    16  35    5.9322   398.1    8.227      41.831
2015    1       18    16  40    5.9387   398.1    8.235      41.868
2015    1       18    16  45    5.9452   398.1    8.244      41.905
2015    1       18    16  51    5.9516   398.1    8.251      41.941
2015    1       18    16  56    5.9580   398.2    8.259      41.978
2015    1       18    17   2    5.9644   398.2    8.267      42.014
2015    1       18    17   7    5.9707   398.2    8.274      42.049
2015    1       18    17  12    5.9770   398.2    8.281      42.084
2015    1       18    17  18    5.9833   398.2    8.288      42.119
2015    1       18    17  23    5.9896   398.2    8.295      42.154
2015    1       18    17  29    5.9958   398.2    8.301      42.188
2015    1       18    17  34    6.0021   398.3    8.308      42.222
2015    1       18    17  39    6.0083   398.3    8.314      42.256
2015    1       18    17  45    6.0145   398.3    8.321      42.290
2015    1       18    17  50    6.0207   398.3    8.327      42.323
2015    1       18    17  56    6.0269   398.3    8.333      42.356
2015    1       18    18   1    6.0330   398.3    8.339      42.388
2015    1       18    18   7    6.0392   398.4    8.345      42.421
2015    1       18    18  12    6.0453   398.4    8.351      42.453
2015    1       18    18  17    6.0515   398.4    8.356      42.485
2015    1       18    18  23    6.0576   398.4    8.362      42.516
2015    1       18    18  28    6.0637   398.4    8.367      42.548
2015    1       18    18  34    6.0698   398.5    8.373      42.579
2015    1       18    18  39    6.0760   398.5    8.378      42.610
2015    1       18    18  44    6.0821   398.5    8.384      42.642
2015    1       18    18  50    6.0882   398.5    8.389      42.672
2015    1       18    18  55    6.0943   398.5    8.394      42.703
2015    1       18    19   1    6.1004   398.6    8.399      42.734
2015    1       18    19   6    6.1065   398.6    8.404      42.765
2015    1       18    19  11    6.1126   398.6    8.410      42.795
2015    1       18    19  17    6.1188   398.6    8.415      42.826
2015    1       18    19  22    6.1249   398.7    8.420      42.856
2015    1       18    19  28    6.1310   398.7    8.425      42.886
2015    1       18    19  33    6.1372   398.7    8.430      42.917
2015    1       18    19  39    6.1433   398.7    8.435      42.947
2015    1       18    19  44    6.1494   398.8    8.440      42.977
2015    1       18    19  49    6.1556   398.8    8.445      43.008
2015    1       18    19  55    6.1618   398.8    8.450      43.038
2015    1       18    20   0    6.1680   398.8    8.455      43.069
2015    1       18    20   6    6.1742   398.9    8.460      43.099
2015    1       18    20  11    6.1804   398.9    8.465      43.130
2015    1       18    20  16    6.1867   398.9    8.470      43.161
2015    1       18    20  22    6.1929   399.0    8.475      43.193
2015    1       18    20  27    6.1992   399.0    8.480      43.224
2015    1       18    20  33    6.2055   399.0    8.485      43.256
2015    1       18    20  38    6.2119   399.0    8.490      43.288
2015    1       18    20  43    6.2182   399.1    8.495      43.320
2015    1       18    20  49    6.2246   399.1    8.501      43.353
2015    1       18    20  54    6.2311   399.1    8.506      43.386
2015    1       18    21   0    6.2375   399.2    8.512      43.419
2015    1       18    21   5    6.2440   399.2    8.517      43.453
2015    1       18    21  11    6.2506   399.3    8.523      43.487
2015    1       18    21  16    6.2572   399.3    8.529      43.522
2015    1       18    21  21    6.2638   399.3    8.535      43.557
2015    1       18    21  27    6.2704   399.4    8.541      43.593
2015    1       18    21  32    6.2771   399.4    8.547      43.629
2015    1       18    21  38    6.2839   399.4    8.554      43.666
2015    1       18    21  43    6.2907   399.5    8.560      43.703
2015    1       18    21  48    6.2975   399.5    8.567      43.740
2015    1       18    21  54    6.3044   399.6    8.574      43.779
2015    1       18    21  59    6.3114   399.6    8.581      43.818
2015    1       18    22   5    6.3184   399.7    8.588      43.857
2015    1       18    22  10    6.3255   399.7    8.596      43.897
2015    1       18    22  15    6.3327   399.8    8.604      43.938
2015    1       18    22  21    6.3399   399.8    8.612      43.978
2015    1       18    22  26    6.3472   399.9    8.620      44.020
2015    1       18    22  32    6.3545   399.9    8.629      44.062
2015    1       18    22  37    6.3619   400.0    8.637      44.105
2015    1       18    22  42    6.3693   400.0    8.646      44.149
2015    1       18    22  48    6.3768   400.1    8.656      44.195
2015    1       18    22  53    6.3843   400.1    8.665      44.242
2015    1       18    22  59    6.3918   400.2    8.674      44.290
2015    1       18    23   4    6.3994   400.3    8.684      44.341
2015    1       18    23  10    6.4069   400.3    8.694      44.393
2015    1       18    23  15    6.4145   400.4    8.703      44.446
2015    1       18    23  20    6.4220   400.5    8.713      44.501
2015    1       18    23  26    6.4295   400.5    8.722      44.557
2015    1       18    23  31    6.4369   400.6    8.732      44.614
2015    1       18    23  37    6.4443   400.7    8.741      44.673
2015    1       18    23  42    6.4517   400.8    8.751      44.733
2015    1       18    23  47    6.4590   400.8    8.760      44.795
2015    1       18    23  53    6.4663   400.9    8.768      44.858
2015    1       18    23  58    6.4734   401.0    8.777      44.922
2015    1       19     0   4    6.4806   401.1    8.785      44.987
2015    1       19     0   9    6.4876   401.2    8.793      45.053
2015    1       19     0  14    6.4946   401.3    8.801      45.119
2015    1       19     0  20    6.5015   401.4    8.808      45.185
2015    1       19     0  25    6.5084   401.5    8.815      45.251
2015    1       19     0  31    6.5151   401.5    8.822      45.316
2015    1       19     0  36    6.5218   401.6    8.829      45.380
2015    1       19     0  42    6.5285   401.7    8.835      45.444
2015    1       19     0  47    6.5351   401.8    8.841      45.507
2015    1       19     0  52    6.5416   401.9    8.846      45.569
2015    1       19     0  58    6.5481   402.0    8.852      45.632
2015    1       19     1   3    6.5545   402.1    8.857      45.693
2015    1       19     1   9    6.5610   402.2    8.862      45.754
2015    1       19     1  14    6.5673   402.3    8.866      45.814
2015    1       19     1  19    6.5736   402.4    8.871      45.874
2015    1       19     1  25    6.5799   402.4    8.875      45.933
2015    1       19     1  30    6.5861   402.5    8.879      45.991
2015    1       19     1  36    6.5923   402.6    8.883      46.049
2015    1       19     1  41    6.5985   402.7    8.886      46.107
2015    1       19     1  47    6.6047   402.8    8.890      46.164
2015    1       19     1  52    6.6108   402.9    8.893      46.220
2015    1       19     1  57    6.6169   403.0    8.896      46.276
2015    1       19     2   3    6.6230   403.1    8.899      46.331
2015    1       19     2   8    6.6290   403.2    8.902      46.386
2015    1       19     2  14    6.6350   403.3    8.905      46.441
2015    1       19     2  19    6.6410   403.4    8.907      46.495
2015    1       19     2  24    6.6470   403.5    8.910      46.548
2015    1       19     2  30    6.6529   403.6    8.912      46.601
2015    1       19     2  35    6.6589   403.7    8.914      46.654
2015    1       19     2  41    6.6648   403.8    8.916      46.706
2015    1       19     2  46    6.6707   403.9    8.918      46.758
2015    1       19     2  51    6.6766   404.0    8.920      46.809
2015    1       19     2  57    6.6825   404.1    8.922      46.859
2015    1       19     3   2    6.6884   404.2    8.923      46.910
2015    1       19     3   8    6.6942   404.3    8.925      46.960
2015    1       19     3  13    6.7001   404.4    8.927      47.010
2015    1       19     3  19    6.7060   404.5    8.928      47.059
2015    1       19     3  24    6.7118   404.6    8.929      47.108
2015    1       19     3  29    6.7177   404.7    8.931      47.157
2015    1       19     3  35    6.7236   404.8    8.932      47.206
2015    1       19     3  40    6.7295   404.9    8.933      47.255
2015    1       19     3  46    6.7354   405.0    8.935      47.304
2015    1       19     3  51    6.7413   405.1    8.936      47.352
2015    1       19     3  56    6.7472   405.2    8.937      47.401
2015    1       19     4   2    6.7532   405.3    8.938      47.449
2015    1       19     4   7    6.7591   405.4    8.939      47.498
2015    1       19     4  13    6.7651   405.5    8.941      47.546
2015    1       19     4  18    6.7711   405.6    8.942      47.595
2015    1       19     4  23    6.7772   405.7    8.943      47.644
2015    1       19     4  29    6.7833   405.8    8.945      47.693
2015    1       19     4  34    6.7894   405.9    8.946      47.742
2015    1       19     4  40    6.7955   406.0    8.948      47.791
2015    1       19     4  45    6.8017   406.1    8.949      47.841
2015    1       19     4  50    6.8080   406.2    8.951      47.891
2015    1       19     4  56    6.8142   406.4    8.953      47.941
2015    1       19     5   1    6.8206   406.5    8.954      47.991
2015    1       19     5   7    6.8270   406.6    8.956      48.042
2015    1       19     5  12    6.8334   406.7    8.958      48.093
2015    1       19     5  17    6.8399   406.8    8.961      48.145
2015    1       19     5  23    6.8464   406.9    8.963      48.197
2015    1       19     5  28    6.8531   407.0    8.966      48.250
2015    1       19     5  34    6.8597   407.2    8.968      48.304
2015    1       19     5  39    6.8665   407.3    8.971      48.358
2015    1       19     5  45    6.8732   407.4    8.974      48.412
2015    1       19     5  50    6.8801   407.5    8.977      48.467
2015    1       19     5  55    6.8869   407.6    8.981      48.523
2015    1       19     6   1    6.8938   407.8    8.985      48.579
2015    1       19     6   6    6.9008   407.9    8.988      48.637
2015    1       19     6  12    6.9078   408.0    8.993      48.695
2015    1       19     6  17    6.9148   408.1    8.997      48.755
2015    1       19     6  22    6.9219   408.3    9.001      48.816
2015    1       19     6  28    6.9289   408.4    9.006      48.879
2015    1       19     6  33    6.9360   408.5    9.011      48.942
2015    1       19     6  39    6.9431   408.7    9.016      49.008
2015    1       19     6  44    6.9501   408.8    9.021      49.075
2015    1       19     6  49    6.9572   408.9    9.026      49.145
2015    1       19     6  55    6.9642   409.1    9.031      49.216
2015    1       19     7   0    6.9711   409.2    9.036      49.290
2015    1       19     7   6    6.9780   409.4    9.040      49.365
2015    1       19     7  11    6.9849   409.5    9.045      49.442
2015    1       19     7  17    6.9916   409.7    9.050      49.521
2015    1       19     7  22    6.9984   409.8    9.054      49.600
2015    1       19     7  27    7.0050   410.0    9.058      49.681
2015    1       19     7  33    7.0116   410.1    9.062      49.763
2015    1       19     7  38    7.0181   410.3    9.066      49.844
2015    1       19     7  44    7.0246   410.4    9.070      49.926
2015    1       19     7  49    7.0309   410.6    9.074      50.007
2015    1       19     7  54    7.0373   410.7    9.077      50.089
2015    1       19     8   0    7.0435   410.9    9.081      50.171
2015    1       19     8   5    7.0497   411.0    9.084      50.253
2015    1       19     8  11    7.0559   411.1    9.087      50.336
2015    1       19     8  16    7.0620   411.3    9.091      50.418
2015    1       19     8  22    7.0680   411.4    9.094      50.500
2015    1       19     8  27    7.0740   411.6    9.097      50.584
2015    1       19     8  32    7.0800   411.7    9.100      50.668
2015    1       19     8  38    7.0859   411.9    9.103      50.753
2015    1       19     8  43    7.0918   412.0    9.106      50.838
2015    1       19     8  49    7.0976   412.2    9.108      50.923
2015    1       19     8  54    7.1033   412.3    9.111      51.008
2015    1       19     8  59    7.1091   412.5    9.113      51.093
2015    1       19     9   5    7.1148   412.7    9.115      51.179
2015    1       19     9  10    7.1204   412.8    9.117      51.264
2015    1       19     9  16    7.1260   413.0    9.118      51.349
2015    1       19     9  21    7.1316   413.1    9.120      51.432
2015    1       19     9  26    7.1371   413.3    9.121      51.514
2015    1       19     9  32    7.1426   413.5    9.121      51.595
2015    1       19     9  37    7.1481   413.6    9.122      51.676
2015    1       19     9  43    7.1535   413.8    9.123      51.755
2015    1       19     9  48    7.1589   414.0    9.123      51.834
2015    1       19     9  54    7.1643   414.1    9.123      51.911
2015    1       19     9  59    7.1696   414.3    9.123      51.988
2015    1       19    10   4    7.1749   414.4    9.122      52.064
2015    1       19    10  10    7.1802   414.6    9.122      52.139
2015    1       19    10  15    7.1855   414.8    9.121      52.213
2015    1       19    10  21    7.1907   414.9    9.120      52.286
2015    1       19    10  26    7.1959   415.1    9.119      52.359
2015    1       19    10  31    7.2012   415.3    9.118      52.431
2015    1       19    10  37    7.2063   415.5    9.117      52.502
2015    1       19    10  42    7.2115   415.6    9.116      52.572
2015    1       19    10  48    7.2167   415.8    9.114      52.642
2015    1       19    10  53    7.2219   416.0    9.113      52.711
2015    1       19    10  58    7.2271   416.1    9.112      52.779
2015    1       19    11   4    7.2323   416.3    9.110      52.847
2015    1       19    11   9    7.2375   416.5    9.108      52.915
2015    1       19    11  15    7.2427   416.6    9.107      52.982
2015    1       19    11  20    7.2479   416.8    9.105      53.049
2015    1       19    11  26    7.2531   417.0    9.104      53.116
2015    1       19    11  31    7.2583   417.1    9.102      53.182
2015    1       19    11  36    7.2635   417.3    9.100      53.248
2015    1       19    11  42    7.2687   417.5    9.099      53.313
2015    1       19    11  47    7.2739   417.7    9.097      53.378
2015    1       19    11  53    7.2792   417.8    9.096      53.443
2015    1       19    11  58    7.2844   418.0    9.094      53.508
2015    1       19    12   3    7.2897   418.2    9.093      53.573
2015    1       19    12   9    7.2950   418.3    9.091      53.637
2015    1       19    12  14    7.3003   418.5    9.090      53.702
2015    1       19    12  20    7.3056   418.7    9.089      53.766
2015    1       19    12  25    7.3110   418.9    9.088      53.830
2015    1       19    12  30    7.3164   419.0    9.087      53.895
2015    1       19    12  36    7.3219   419.2    9.086      53.960
2015    1       19    12  41    7.3274   419.4    9.086      54.025
2015    1       19    12  47    7.3329   419.6    9.085      54.090
2015    1       19    12  52    7.3385   419.7    9.085      54.156
2015    1       19    12  57    7.3442   419.9    9.086      54.222
2015    1       19    13   3    7.3499   420.1    9.086      54.289
2015    1       19    13   8    7.3557   420.3    9.087      54.356
2015    1       19    13  14    7.3616   420.4    9.088      54.426
2015    1       19    13  19    7.3675   420.6    9.090      54.496
2015    1       19    13  25    7.3735   420.8    9.092      54.567
2015    1       19    13  30    7.3796   421.0    9.095      54.639
2015    1       19    13  35    7.3858   421.1    9.098      54.713
2015    1       19    13  41    7.3920   421.3    9.101      54.789
2015    1       19    13  46    7.3983   421.5    9.104      54.870
2015    1       19    13  52    7.4046   421.7    9.108      54.955
2015    1       19    13  57    7.4109   421.9    9.111      55.044
2015    1       19    14   2    7.4172   422.1    9.115      55.137
2015    1       19    14   8    7.4234   422.4    9.118      55.234
2015    1       19    14  13    7.4296   422.6    9.121      55.335
2015    1       19    14  19    7.4358   422.8    9.125      55.438
2015    1       19    14  24    7.4418   423.0    9.127      55.544
2015    1       19    14  29    7.4478   423.2    9.130      55.652
2015    1       19    14  35    7.4536   423.5    9.132      55.760
2015    1       19    14  40    7.4594   423.7    9.134      55.866
2015    1       19    14  46    7.4650   423.9    9.136      55.973
2015    1       19    14  51    7.4705   424.1    9.138      56.079
2015    1       19    14  57    7.4760   424.4    9.139      56.185
2015    1       19    15   2    7.4813   424.6    9.140      56.291
2015    1       19    15   7    7.4865   424.8    9.141      56.396
2015    1       19    15  13    7.4916   425.0    9.142      56.500
2015    1       19    15  18    7.4966   425.3    9.142      56.605
2015    1       19    15  24    7.5016   425.5    9.142      56.710
2015    1       19    15  29    7.5065   425.7    9.142      56.816
2015    1       19    15  34    7.5114   426.0    9.142      56.921
2015    1       19    15  40    7.5162   426.2    9.142      57.026
2015    1       19    15  45    7.5209   426.4    9.141      57.131
2015    1       19    15  51    7.5256   426.7    9.140      57.236
2015    1       19    15  56    7.5303   426.9    9.139      57.342
2015    1       19    16   2    7.5350   427.1    9.138      57.447
2015    1       19    16   7    7.5396   427.4    9.136      57.551
2015    1       19    16  12    7.5442   427.6    9.134      57.654
2015    1       19    16  18    7.5487   427.8    9.132      57.756
2015    1       19    16  23    7.5533   428.1    9.129      57.858
2015    1       19    16  29    7.5579   428.3    9.127      57.959
2015    1       19    16  34    7.5624   428.6    9.124      58.059
2015    1       19    16  39    7.5670   428.8    9.121      58.158
2015    1       19    16  45    7.5715   429.1    9.118      58.257
2015    1       19    16  50    7.5761   429.3    9.115      58.355
2015    1       19    16  56    7.5806   429.5    9.112      58.453
2015    1       19    17   1    7.5852   429.8    9.108      58.550
2015    1       19    17   6    7.5898   430.0    9.105      58.647
2015    1       19    17  12    7.5943   430.3    9.102      58.744
2015    1       19    17  17    7.5989   430.5    9.098      58.841
2015    1       19    17  23    7.6034   430.8    9.094      58.938
2015    1       19    17  28    7.6080   431.1    9.090      59.033
2015    1       19    17  34    7.6125   431.3    9.086      59.129
2015    1       19    17  39    7.6170   431.6    9.082      59.224
2015    1       19    17  44    7.6215   431.9    9.078      59.318
2015    1       19    17  50    7.6259   432.1    9.074      59.411
2015    1       19    17  55    7.6304   432.4    9.069      59.504
2015    1       19    18   1    7.6347   432.7    9.064      59.596
2015    1       19    18   6    7.6391   432.9    9.060      59.687
2015    1       19    18  11    7.6434   433.2    9.055      59.778
2015    1       19    18  17    7.6476   433.5    9.050      59.867
2015    1       19    18  22    7.6518   433.7    9.045      59.956
2015    1       19    18  28    7.6560   434.0    9.039      60.044
2015    1       19    18  33    7.6601   434.3    9.034      60.131
2015    1       19    18  38    7.6641   434.6    9.028      60.217
2015    1       19    18  44    7.6681   434.9    9.022      60.303
2015    1       19    18  49    7.6720   435.1    9.017      60.387
2015    1       19    18  55    7.6759   435.4    9.011      60.471
2015    1       19    19   0    7.6797   435.7    9.005      60.554
2015    1       19    19   5    7.6835   436.0    8.998      60.635
2015    1       19    19  11    7.6871   436.3    8.992      60.716
2015    1       19    19  16    7.6908   436.5    8.986      60.796
2015    1       19    19  22    7.6944   436.8    8.979      60.875
2015    1       19    19  27    7.6979   437.1    8.973      60.953
2015    1       19    19  33    7.7014   437.4    8.967      61.031
2015    1       19    19  38    7.7048   437.7    8.960      61.107
2015    1       19    19  43    7.7082   437.9    8.954      61.183
2015    1       19    19  49    7.7116   438.2    8.948      61.258
2015    1       19    19  54    7.7150   438.5    8.941      61.333
2015    1       19    20   0    7.7184   438.8    8.936      61.406
2015    1       19    20   5    7.7218   439.0    8.930      61.480
2015    1       19    20  10    7.7251   439.3    8.924      61.554
2015    1       19    20  16    7.7285   439.6    8.919      61.628
2015    1       19    20  21    7.7319   439.8    8.914      61.702
2015    1       19    20  27    7.7353   440.1    8.909      61.776
2015    1       19    20  32    7.7387   440.3    8.905      61.851
2015    1       19    20  37    7.7421   440.6    8.900      61.927
2015    1       19    20  43    7.7456   440.9    8.896      62.002
2015    1       19    20  48    7.7491   441.1    8.893      62.078
2015    1       19    20  54    7.7526   441.4    8.889      62.152
2015    1       19    20  59    7.7562   441.6    8.886      62.228
2015    1       19    21   4    7.7598   441.9    8.883      62.304
2015    1       19    21  10    7.7633   442.2    8.880      62.384
2015    1       19    21  15    7.7668   442.5    8.878      62.467
2015    1       19    21  21    7.7703   442.7    8.875      62.552
2015    1       19    21  26    7.7737   443.0    8.872      62.640
2015    1       19    21  32    7.7771   443.3    8.868      62.732
2015    1       19    21  37    7.7803   443.6    8.865      62.826
2015    1       19    21  42    7.7835   443.9    8.861      62.922
2015    1       19    21  48    7.7865   444.2    8.857      63.020
2015    1       19    21  53    7.7894   444.5    8.852      63.118
2015    1       19    21  59    7.7923   444.8    8.848      63.215
2015    1       19    22   4    7.7950   445.1    8.842      63.311
2015    1       19    22   9    7.7976   445.4    8.837      63.407
2015    1       19    22  15    7.8001   445.7    8.831      63.503
2015    1       19    22  20    7.8025   446.0    8.825      63.598
2015    1       19    22  26    7.8048   446.3    8.818      63.694
2015    1       19    22  31    7.8070   446.7    8.812      63.790
2015    1       19    22  37    7.8092   447.0    8.805      63.885
2015    1       19    22  42    7.8112   447.3    8.797      63.980
2015    1       19    22  47    7.8132   447.7    8.790      64.075
2015    1       19    22  53    7.8151   448.0    8.782      64.169
2015    1       19    22  58    7.8169   448.3    8.774      64.263
2015    1       19    23   4    7.8187   448.7    8.766      64.357
2015    1       19    23   9    7.8204   449.0    8.758      64.451
2015    1       19    23  14    7.8220   449.3    8.749      64.544
2015    1       19    23  20    7.8235   449.7    8.740      64.637
2015    1       19    23  25    7.8251   450.0    8.731      64.730
2015    1       19    23  31    7.8265   450.4    8.722      64.823
2015    1       19    23  36    7.8279   450.7    8.713      64.915
2015    1       19    23  41    7.8292   451.0    8.704      65.008
2015    1       19    23  47    7.8305   451.4    8.694      65.101
2015    1       19    23  52    7.8317   451.7    8.685      65.194
2015    1       19    23  58    7.8328   452.1    8.675      65.286
2015    1       20     0   3    7.8339   452.4    8.665      65.379
2015    1       20     0   9    7.8349   452.7    8.655      65.471
2015    1       20     0  14    7.8357   453.1    8.645      65.564
2015    1       20     0  19    7.8365   453.4    8.634      65.655
2015    1       20     0  25    7.8372   453.8    8.624      65.746
2015    1       20     0  30    7.8379   454.1    8.613      65.836
2015    1       20     0  36    7.8383   454.5    8.602      65.924
2015    1       20     0  41    7.8388   454.8    8.592      66.012
2015    1       20     0  46    7.8391   455.1    8.580      66.099
2015    1       20     0  52    7.8393   455.5    8.569      66.183
2015    1       20     0  57    7.8394   455.8    8.558      66.266
2015    1       20     1   3    7.8394   456.2    8.546      66.347
2015    1       20     1   8    7.8392   456.5    8.535      66.427
2015    1       20     1  13    7.8390   456.9    8.523      66.506
2015    1       20     1  19    7.8386   457.2    8.511      66.583
2015    1       20     1  24    7.8381   457.6    8.499      66.657
2015    1       20     1  30    7.8375   458.0    8.487      66.731
2015    1       20     1  35    7.8367   458.3    8.474      66.805
2015    1       20     1  41    7.8356   458.7    8.461      66.880
2015    1       20     1  46    7.8344   459.1    8.447      66.956
2015    1       20     1  51    7.8328   459.5    8.433      67.030
2015    1       20     1  57    7.8309   459.9    8.419      67.101
2015    1       20     2   2    7.8289   460.3    8.404      67.170
2015    1       20     2   8    7.8266   460.7    8.390      67.237
2015    1       20     2  13    7.8241   461.0    8.375      67.302
2015    1       20     2  18    7.8215   461.4    8.360      67.364
2015    1       20     2  24    7.8187   461.8    8.345      67.423
2015    1       20     2  29    7.8159   462.1    8.330      67.478
2015    1       20     2  35    7.8130   462.5    8.315      67.533
2015    1       20     2  40    7.8101   462.8    8.300      67.588
2015    1       20     2  45    7.8071   463.2    8.286      67.642
2015    1       20     2  51    7.8042   463.5    8.271      67.695
2015    1       20     2  56    7.8012   463.8    8.257      67.748
2015    1       20     3   2    7.7982   464.2    8.242      67.798
2015    1       20     3   7    7.7952   464.5    8.228      67.848
2015    1       20     3  12    7.7922   464.8    8.215      67.897
2015    1       20     3  18    7.7893   465.2    8.201      67.946
2015    1       20     3  23    7.7864   465.5    8.188      67.995
2015    1       20     3  29    7.7835   465.8    8.175      68.044
2015    1       20     3  34    7.7806   466.1    8.162      68.097
2015    1       20     3  40    7.7778   466.4    8.149      68.152
2015    1       20     3  45    7.7749   466.8    8.136      68.209
2015    1       20     3  50    7.7719   467.1    8.123      68.269
2015    1       20     3  56    7.7690   467.4    8.110      68.330
2015    1       20     4   1    7.7659   467.8    8.097      68.393
2015    1       20     4   7    7.7629   468.1    8.085      68.458
2015    1       20     4  12    7.7597   468.4    8.072      68.522
2015    1       20     4  17    7.7565   468.8    8.058      68.586
2015    1       20     4  23    7.7531   469.2    8.045      68.648
2015    1       20     4  28    7.7496   469.5    8.031      68.708
2015    1       20     4  34    7.7459   469.9    8.017      68.766
2015    1       20     4  39    7.7421   470.2    8.003      68.822
2015    1       20     4  44    7.7380   470.5    7.989      68.875
2015    1       20     4  50    7.7339   470.9    7.975      68.924
2015    1       20     4  55    7.7298   471.2    7.961      68.971
2015    1       20     5   1    7.7256   471.5    7.947      69.016
2015    1       20     5   6    7.7214   471.8    7.932      69.058
2015    1       20     5  12    7.7173   472.1    7.918      69.098
2015    1       20     5  17    7.7132   472.4    7.905      69.138
2015    1       20     5  22    7.7091   472.7    7.891      69.178
2015    1       20     5  28    7.7050   473.0    7.877      69.219
2015    1       20     5  33    7.7010   473.3    7.864      69.262
2015    1       20     5  39    7.6969   473.6    7.851      69.307
2015    1       20     5  44    7.6929   473.9    7.837      69.356
2015    1       20     5  49    7.6888   474.2    7.824      69.407
2015    1       20     5  55    7.6847   474.5    7.811      69.461
2015    1       20     6   0    7.6805   474.9    7.798      69.515
2015    1       20     6   6    7.6764   475.2    7.785      69.570
2015    1       20     6  11    7.6722   475.6    7.772      69.624
2015    1       20     6  16    7.6680   475.9    7.760      69.677
2015    1       20     6  22    7.6638   476.3    7.747      69.727
2015    1       20     6  27    7.6595   476.6    7.734      69.776
2015    1       20     6  33    7.6552   477.0    7.722      69.822
2015    1       20     6  38    7.6508   477.3    7.709      69.866
2015    1       20     6  44    7.6462   477.6    7.696      69.910
2015    1       20     6  49    7.6416   477.9    7.683      69.953
2015    1       20     6  54    7.6369   478.3    7.670      69.996
2015    1       20     7   0    7.6320   478.6    7.656      70.039
2015    1       20     7   5    7.6269   478.9    7.643      70.082
2015    1       20     7  11    7.6218   479.2    7.629      70.124
2015    1       20     7  16    7.6164   479.6    7.615      70.167
2015    1       20     7  21    7.6109   479.9    7.600      70.210
2015    1       20     7  27    7.6052   480.3    7.586      70.252
2015    1       20     7  32    7.5995   480.6    7.572      70.293
2015    1       20     7  38    7.5935   480.9    7.557      70.332
2015    1       20     7  43    7.5875   481.3    7.542      70.369
2015    1       20     7  49    7.5813   481.6    7.527      70.403
2015    1       20     7  54    7.5750   481.9    7.513      70.435
2015    1       20     7  59    7.5687   482.2    7.498      70.465
2015    1       20     8   5    7.5623   482.5    7.483      70.492
2015    1       20     8  10    7.5558   482.8    7.468      70.517
2015    1       20     8  16    7.5493   483.1    7.454      70.540
2015    1       20     8  21    7.5426   483.4    7.439      70.560
2015    1       20     8  26    7.5360   483.7    7.425      70.579
2015    1       20     8  32    7.5293   484.0    7.410      70.596
2015    1       20     8  37    7.5226   484.3    7.396      70.614
2015    1       20     8  43    7.5157   484.5    7.381      70.631
2015    1       20     8  48    7.5089   484.9    7.367      70.650
2015    1       20     8  53    7.5019   485.2    7.352      70.670
2015    1       20     8  59    7.4949   485.5    7.338      70.693
2015    1       20     9   4    7.4877   485.9    7.323      70.721
2015    1       20     9  10    7.4802   486.2    7.308      70.751
2015    1       20     9  15    7.4726   486.6    7.293      70.780
2015    1       20     9  20    7.4647   487.0    7.277      70.806
2015    1       20     9  26    7.4565   487.3    7.261      70.829
2015    1       20     9  31    7.4482   487.7    7.245      70.847
2015    1       20     9  37    7.4397   488.0    7.229      70.861
2015    1       20     9  42    7.4310   488.4    7.213      70.869
2015    1       20     9  48    7.4222   488.7    7.197      70.872
2015    1       20     9  53    7.4134   488.9    7.181      70.870
2015    1       20     9  58    7.4045   489.2    7.165      70.866
2015    1       20    10   4    7.3958   489.5    7.149      70.861
2015    1       20    10   9    7.3870   489.8    7.133      70.854
2015    1       20    10  15    7.3783   490.1    7.118      70.848
2015    1       20    10  20    7.3697   490.4    7.102      70.841
2015    1       20    10  25    7.3611   490.6    7.087      70.833
2015    1       20    10  31    7.3525   490.9    7.072      70.822
2015    1       20    10  36    7.3441   491.1    7.058      70.810
2015    1       20    10  42    7.3358   491.4    7.044      70.796
2015    1       20    10  47    7.3276   491.6    7.030      70.783
2015    1       20    10  52    7.3195   491.8    7.016      70.771
2015    1       20    10  58    7.3116   492.0    7.003      70.758
2015    1       20    11   3    7.3038   492.2    6.990      70.746
2015    1       20    11   9    7.2960   492.4    6.978      70.738
2015    1       20    11  14    7.2883   492.7    6.965      70.735
2015    1       20    11  19    7.2808   492.9    6.953      70.735
2015    1       20    11  25    7.2732   493.1    6.941      70.738
2015    1       20    11  30    7.2657   493.3    6.929      70.745
2015    1       20    11  36    7.2582   493.6    6.917      70.754
2015    1       20    11  41    7.2508   493.8    6.906      70.766
2015    1       20    11  47    7.2433   494.1    6.894      70.782
2015    1       20    11  52    7.2359   494.3    6.883      70.799
2015    1       20    11  57    7.2285   494.6    6.872      70.815
2015    1       20    12   3    7.2210   494.9    6.861      70.831
2015    1       20    12   8    7.2135   495.1    6.850      70.846
2015    1       20    12  14    7.2060   495.4    6.838      70.861
2015    1       20    12  19    7.1983   495.6    6.827      70.876
2015    1       20    12  24    7.1905   495.9    6.815      70.888
2015    1       20    12  30    7.1826   496.1    6.804      70.898
2015    1       20    12  35    7.1746   496.4    6.792      70.907
2015    1       20    12  41    7.1666   496.6    6.780      70.915
2015    1       20    12  46    7.1586   496.8    6.769      70.921
2015    1       20    12  51    7.1506   497.0    6.758      70.926
2015    1       20    12  57    7.1426   497.3    6.746      70.930
2015    1       20    13   2    7.1347   497.5    6.735      70.935
2015    1       20    13   8    7.1268   497.7    6.724      70.941
2015    1       20    13  13    7.1189   497.9    6.713      70.948
2015    1       20    13  19    7.1109   498.1    6.702      70.955
2015    1       20    13  24    7.1030   498.4    6.691      70.963
2015    1       20    13  29    7.0951   498.6    6.680      70.971
2015    1       20    13  35    7.0872   498.8    6.669      70.977
2015    1       20    13  40    7.0793   499.1    6.659      70.980
2015    1       20    13  46    7.0714   499.3    6.648      70.982
2015    1       20    13  51    7.0636   499.6    6.637      70.983
2015    1       20    13  56    7.0557   499.8    6.627      70.981
2015    1       20    14   2    7.0479   500.0    6.616      70.976
2015    1       20    14   7    7.0400   500.2    6.605      70.969
2015    1       20    14  13    7.0321   500.5    6.595      70.961
2015    1       20    14  18    7.0241   500.7    6.584      70.951
2015    1       20    14  24    7.0161   500.9    6.573      70.941
2015    1       20    14  29    7.0079   501.1    6.562      70.930
2015    1       20    14  34    6.9997   501.3    6.551      70.919
2015    1       20    14  40    6.9914   501.6    6.540      70.907
2015    1       20    14  45    6.9830   501.8    6.528      70.894
2015    1       20    14  51    6.9745   502.0    6.517      70.879
2015    1       20    14  56    6.9660   502.2    6.505      70.863
2015    1       20    15   1    6.9573   502.5    6.494      70.845
2015    1       20    15   7    6.9487   502.7    6.482      70.825
2015    1       20    15  12    6.9400   502.9    6.471      70.803
2015    1       20    15  18    6.9314   503.1    6.460      70.780
2015    1       20    15  23    6.9227   503.2    6.449      70.757
2015    1       20    15  28    6.9142   503.4    6.438      70.731
2015    1       20    15  34    6.9056   503.6    6.427      70.705
2015    1       20    15  39    6.8971   503.7    6.416      70.678
2015    1       20    15  45    6.8887   503.9    6.406      70.650
2015    1       20    15  50    6.8803   504.0    6.395      70.621
2015    1       20    15  56    6.8720   504.2    6.385      70.594
2015    1       20    16   1    6.8638   504.3    6.375      70.568
2015    1       20    16   6    6.8556   504.5    6.366      70.543
2015    1       20    16  12    6.8476   504.6    6.356      70.522
2015    1       20    16  17    6.8396   504.8    6.347      70.503
2015    1       20    16  23    6.8316   505.0    6.338      70.486
2015    1       20    16  28    6.8237   505.2    6.329      70.471
2015    1       20    16  33    6.8159   505.3    6.320      70.457
2015    1       20    16  39    6.8081   505.5    6.311      70.444
2015    1       20    16  44    6.8003   505.7    6.303      70.432
2015    1       20    16  50    6.7926   505.9    6.294      70.420
2015    1       20    16  55    6.7848   506.1    6.285      70.407
2015    1       20    17   0    6.7770   506.2    6.277      70.392
2015    1       20    17   6    6.7692   506.4    6.268      70.377
2015    1       20    17  11    6.7613   506.6    6.259      70.361
2015    1       20    17  17    6.7535   506.8    6.250      70.344
2015    1       20    17  22    6.7456   507.0    6.241      70.326
2015    1       20    17  27    6.7378   507.1    6.233      70.305
2015    1       20    17  33    6.7300   507.3    6.224      70.284
2015    1       20    17  38    6.7222   507.5    6.215      70.262
2015    1       20    17  44    6.7146   507.6    6.206      70.239
2015    1       20    17  49    6.7069   507.8    6.197      70.215
2015    1       20    17  55    6.6992   507.9    6.188      70.191
2015    1       20    18   0    6.6916   508.1    6.180      70.167
2015    1       20    18   5    6.6840   508.2    6.171      70.141
2015    1       20    18  11    6.6765   508.4    6.162      70.116
2015    1       20    18  16    6.6690   508.6    6.153      70.091
2015    1       20    18  22    6.6616   508.7    6.144      70.065
2015    1       20    18  27    6.6542   508.9    6.136      70.038
2015    1       20    18  32    6.6469   509.0    6.128      70.012
2015    1       20    18  38    6.6397   509.1    6.119      69.985
2015    1       20    18  43    6.6325   509.3    6.111      69.959
2015    1       20    18  49    6.6254   509.4    6.103      69.933
2015    1       20    18  54    6.6183   509.5    6.095      69.907
2015    1       20    18  59    6.6113   509.7    6.088      69.882
2015    1       20    19   5    6.6043   509.8    6.080      69.858
2015    1       20    19  10    6.5973   509.9    6.073      69.835
2015    1       20    19  16    6.5904   510.1    6.065      69.813
2015    1       20    19  21    6.5835   510.2    6.058      69.792
2015    1       20    19  27    6.5767   510.4    6.051      69.772
2015    1       20    19  32    6.5698   510.5    6.044      69.752
2015    1       20    19  37    6.5630   510.6    6.037      69.733
2015    1       20    19  43    6.5562   510.8    6.030      69.715
2015    1       20    19  48    6.5494   510.9    6.024      69.696
2015    1       20    19  54    6.5426   511.1    6.017      69.677
2015    1       20    19  59    6.5358   511.2    6.010      69.658
2015    1       20    20   4    6.5291   511.3    6.004      69.638
2015    1       20    20  10    6.5223   511.5    5.997      69.618
2015    1       20    20  15    6.5155   511.6    5.990      69.598
2015    1       20    20  21    6.5087   511.7    5.984      69.578
2015    1       20    20  26    6.5019   511.9    5.977      69.558
2015    1       20    20  31    6.4951   512.0    5.970      69.538
2015    1       20    20  37    6.4884   512.1    5.964      69.517
2015    1       20    20  42    6.4816   512.3    5.957      69.497
2015    1       20    20  48    6.4749   512.4    5.951      69.476
2015    1       20    20  53    6.4682   512.5    5.944      69.456
2015    1       20    20  59    6.4615   512.6    5.938      69.435
2015    1       20    21   4    6.4547   512.8    5.931      69.415
2015    1       20    21   9    6.4480   512.9    5.924      69.394
2015    1       20    21  15    6.4413   513.0    5.918      69.373
2015    1       20    21  20    6.4346   513.1    5.911      69.353
2015    1       20    21  26    6.4279   513.3    5.905      69.332
2015    1       20    21  31    6.4212   513.4    5.898      69.311
2015    1       20    21  36    6.4145   513.5    5.892      69.290
2015    1       20    21  42    6.4078   513.6    5.885      69.269
2015    1       20    21  47    6.4011   513.7    5.879      69.249
2015    1       20    21  53    6.3944   513.9    5.873      69.228
2015    1       20    21  58    6.3876   514.0    5.866      69.207
2015    1       20    22   4    6.3809   514.1    5.860      69.186
2015    1       20    22   9    6.3742   514.2    5.854      69.166
2015    1       20    22  14    6.3674   514.3    5.847      69.145
2015    1       20    22  20    6.3606   514.4    5.841      69.125
2015    1       20    22  25    6.3539   514.5    5.835      69.104
2015    1       20    22  31    6.3471   514.7    5.829      69.083
2015    1       20    22  36    6.3403   514.8    5.822      69.063
2015    1       20    22  41    6.3336   514.9    5.816      69.042
2015    1       20    22  47    6.3268   515.0    5.810      69.021
2015    1       20    22  52    6.3200   515.1    5.804      69.000
2015    1       20    22  58    6.3133   515.2    5.798      68.979
2015    1       20    23   3    6.3065   515.3    5.792      68.958
2015    1       20    23   8    6.2998   515.4    5.785      68.937
2015    1       20    23  14    6.2931   515.5    5.779      68.916
2015    1       20    23  19    6.2864   515.6    5.773      68.894
2015    1       20    23  25    6.2797   515.7    5.767      68.872
2015    1       20    23  30    6.2729   515.8    5.761      68.850
2015    1       20    23  35    6.2663   515.9    5.755      68.828
2015    1       20    23  41    6.2596   516.0    5.748      68.805
2015    1       20    23  46    6.2529   516.1    5.742      68.782
2015    1       20    23  52    6.2463   516.2    5.736      68.758
2015    1       20    23  57    6.2397   516.3    5.730      68.735
2015    1       21     0   3    6.2330   516.4    5.724      68.710
2015    1       21     0   8    6.2264   516.5    5.717      68.686
2015    1       21     0  13    6.2198   516.6    5.711      68.661
2015    1       21     0  19    6.2133   516.6    5.705      68.636
2015    1       21     0  24    6.2067   516.7    5.699      68.610
2015    1       21     0  30    6.2001   516.8    5.693      68.585
2015    1       21     0  35    6.1936   516.9    5.686      68.558
2015    1       21     0  40    6.1871   517.0    5.680      68.532
2015    1       21     0  46    6.1806   517.1    5.674      68.504
2015    1       21     0  51    6.1741   517.2    5.668      68.477
2015    1       21     0  57    6.1676   517.2    5.662      68.449
2015    1       21     1   2    6.1612   517.3    5.655      68.421
2015    1       21     1   7    6.1547   517.4    5.649      68.392
2015    1       21     1  13    6.1483   517.5    5.643      68.363
2015    1       21     1  18    6.1419   517.6    5.637      68.334
2015    1       21     1  24    6.1355   517.6    5.631      68.304
2015    1       21     1  29    6.1292   517.7    5.625      68.275
2015    1       21     1  34    6.1228   517.8    5.619      68.245
2015    1       21     1  40    6.1166   517.9    5.613      68.215
2015    1       21     1  45    6.1103   517.9    5.607      68.184
2015    1       21     1  51    6.1040   518.0    5.601      68.154
2015    1       21     1  56    6.0978   518.1    5.595      68.123
2015    1       21     2   2    6.0916   518.2    5.589      68.093
2015    1       21     2   7    6.0854   518.2    5.583      68.062
2015    1       21     2  12    6.0793   518.3    5.578      68.032
2015    1       21     2  18    6.0732   518.4    5.572      68.001
2015    1       21     2  23    6.0671   518.4    5.566      67.971
2015    1       21     2  29    6.0611   518.5    5.561      67.941
2015    1       21     2  34    6.0551   518.6    5.555      67.911
2015    1       21     2  39    6.0491   518.6    5.550      67.881
2015    1       21     2  45    6.0431   518.7    5.545      67.852
2015    1       21     2  50    6.0372   518.8    5.540      67.823
2015    1       21     2  56    6.0313   518.8    5.535      67.794
2015    1       21     3   1    6.0254   518.9    5.530      67.766
2015    1       21     3   6    6.0195   519.0    5.525      67.738
2015    1       21     3  12    6.0137   519.0    5.520      67.711
2015    1       21     3  17    6.0078   519.1    5.515      67.684
2015    1       21     3  23    6.0019   519.2    5.511      67.657
2015    1       21     3  28    5.9960   519.2    5.506      67.631
2015    1       21     3  34    5.9901   519.3    5.502      67.605
2015    1       21     3  39    5.9842   519.4    5.497      67.580
2015    1       21     3  44    5.9782   519.4    5.493      67.555
2015    1       21     3  50    5.9723   519.5    5.489      67.530
2015    1       21     3  55    5.9663   519.6    5.484      67.506
2015    1       21     4   1    5.9603   519.6    5.480      67.482
2015    1       21     4   6    5.9544   519.7    5.476      67.459
2015    1       21     4  11    5.9483   519.7    5.472      67.436
2015    1       21     4  17    5.9423   519.8    5.468      67.413
2015    1       21     4  22    5.9363   519.9    5.463      67.390
2015    1       21     4  28    5.9303   519.9    5.459      67.368
2015    1       21     4  33    5.9242   520.0    5.455      67.346
2015    1       21     4  39    5.9182   520.0    5.450      67.324
2015    1       21     4  44    5.9121   520.1    5.446      67.303
2015    1       21     4  49    5.9061   520.1    5.442      67.281
2015    1       21     4  55    5.9001   520.2    5.437      67.259
2015    1       21     5   0    5.8940   520.3    5.433      67.237
2015    1       21     5   6    5.8880   520.3    5.428      67.214
2015    1       21     5  11    5.8819   520.4    5.424      67.191
2015    1       21     5  16    5.8759   520.4    5.419      67.167
2015    1       21     5  22    5.8699   520.5    5.414      67.143
2015    1       21     5  27    5.8639   520.5    5.410      67.118
2015    1       21     5  33    5.8578   520.5    5.405      67.094
2015    1       21     5  38    5.8518   520.6    5.400      67.068
2015    1       21     5  43    5.8459   520.6    5.395      67.042
2015    1       21     5  49    5.8399   520.7    5.391      67.015
2015    1       21     5  54    5.8339   520.7    5.386      66.988
2015    1       21     6   0    5.8280   520.8    5.381      66.960
2015    1       21     6   5    5.8220   520.8    5.376      66.932
2015    1       21     6  11    5.8161   520.8    5.371      66.903
2015    1       21     6  16    5.8102   520.9    5.366      66.874
2015    1       21     6  21    5.8043   520.9    5.361      66.844
2015    1       21     6  27    5.7985   521.0    5.356      66.814
2015    1       21     6  32    5.7926   521.0    5.351      66.783
2015    1       21     6  38    5.7868   521.0    5.346      66.751
2015    1       21     6  43    5.7809   521.1    5.341      66.720
2015    1       21     6  48    5.7752   521.1    5.335      66.687
2015    1       21     6  54    5.7694   521.1    5.330      66.654
2015    1       21     6  59    5.7636   521.2    5.325      66.621
2015    1       21     7   5    5.7579   521.2    5.320      66.588
2015    1       21     7  10    5.7522   521.2    5.314      66.553
2015    1       21     7  15    5.7465   521.2    5.309      66.519
2015    1       21     7  21    5.7408   521.3    5.304      66.484
2015    1       21     7  26    5.7351   521.3    5.299      66.448
2015    1       21     7  32    5.7295   521.3    5.293      66.413
2015    1       21     7  37    5.7239   521.3    5.288      66.376
2015    1       21     7  42    5.7183   521.4    5.283      66.339
2015    1       21     7  48    5.7127   521.4    5.277      66.302
2015    1       21     7  53    5.7072   521.4    5.272      66.265
2015    1       21     7  59    5.7016   521.4    5.267      66.227
2015    1       21     8   4    5.6961   521.4    5.261      66.189
2015    1       21     8  10    5.6906   521.5    5.256      66.150
2015    1       21     8  15    5.6851   521.5    5.251      66.111
2015    1       21     8  20    5.6797   521.5    5.246      66.072
2015    1       21     8  26    5.6742   521.5    5.240      66.032
2015    1       21     8  31    5.6688   521.5    5.235      65.993
2015    1       21     8  37    5.6634   521.5    5.230      65.953
2015    1       21     8  42    5.6580   521.5    5.225      65.913
2015    1       21     8  47    5.6527   521.5    5.220      65.873
2015    1       21     8  53    5.6473   521.6    5.215      65.832
2015    1       21     8  58    5.6420   521.6    5.210      65.792
2015    1       21     9   4    5.6367   521.6    5.205      65.752
2015    1       21     9   9    5.6315   521.6    5.200      65.711
2015    1       21     9  14    5.6262   521.6    5.195      65.671
2015    1       21     9  20    5.6210   521.6    5.190      65.631
2015    1       21     9  25    5.6158   521.6    5.186      65.591
2015    1       21     9  31    5.6107   521.6    5.181      65.550
2015    1       21     9  36    5.6055   521.6    5.177      65.511
2015    1       21     9  42    5.6004   521.6    5.172      65.471
2015    1       21     9  47    5.5953   521.6    5.168      65.431
2015    1       21     9  52    5.5902   521.6    5.163      65.392
2015    1       21     9  58    5.5851   521.6    5.159      65.353
2015    1       21    10   3    5.5800   521.6    5.155      65.315
2015    1       21    10   9    5.5749   521.6    5.151      65.276
2015    1       21    10  14    5.5699   521.6    5.147      65.239
2015    1       21    10  19    5.5648   521.6    5.143      65.201
2015    1       21    10  25    5.5598   521.6    5.139      65.163
2015    1       21    10  30    5.5547   521.6    5.135      65.126
2015    1       21    10  36    5.5496   521.6    5.131      65.090
2015    1       21    10  41    5.5446   521.6    5.127      65.053
2015    1       21    10  46    5.5395   521.6    5.124      65.017
2015    1       21    10  52    5.5344   521.6    5.120      64.982
2015    1       21    10  57    5.5293   521.6    5.116      64.946
2015    1       21    11   3    5.5242   521.6    5.113      64.911
2015    1       21    11   8    5.5191   521.6    5.109      64.876
2015    1       21    11  14    5.5139   521.6    5.105      64.842
2015    1       21    11  19    5.5088   521.6    5.102      64.807
2015    1       21    11  24    5.5037   521.6    5.098      64.773
2015    1       21    11  30    5.4985   521.6    5.095      64.739
2015    1       21    11  35    5.4934   521.6    5.091      64.705
2015    1       21    11  41    5.4883   521.6    5.088      64.672
2015    1       21    11  46    5.4831   521.6    5.084      64.638
2015    1       21    11  51    5.4780   521.6    5.080      64.605
2015    1       21    11  57    5.4729   521.5    5.077      64.572
2015    1       21    12   2    5.4678   521.5    5.073      64.538
2015    1       21    12   8    5.4627   521.5    5.069      64.505
2015    1       21    12  13    5.4576   521.5    5.066      64.471
2015    1       21    12  19    5.4526   521.5    5.062      64.437
2015    1       21    12  24    5.4475   521.5    5.058      64.403
2015    1       21    12  29    5.4425   521.4    5.054      64.368
2015    1       21    12  35    5.4375   521.4    5.051      64.334
2015    1       21    12  40    5.4325   521.4    5.047      64.299
2015    1       21    12  46    5.4276   521.4    5.043      64.263
2015    1       21    12  51    5.4226   521.4    5.040      64.227
2015    1       21    12  56    5.4177   521.3    5.036      64.191
2015    1       21    13   2    5.4128   521.3    5.032      64.155
2015    1       21    13   7    5.4079   521.3    5.028      64.118
2015    1       21    13  13    5.4031   521.3    5.025      64.081
2015    1       21    13  18    5.3983   521.3    5.021      64.044
2015    1       21    13  23    5.3935   521.2    5.017      64.006
2015    1       21    13  29    5.3887   521.2    5.014      63.968
2015    1       21    13  34    5.3840   521.2    5.010      63.930
2015    1       21    13  40    5.3792   521.1    5.006      63.892
2015    1       21    13  45    5.3745   521.1    5.003      63.853
2015    1       21    13  51    5.3699   521.1    4.999      63.814
2015    1       21    13  56    5.3652   521.1    4.995      63.775
2015    1       21    14   1    5.3606   521.0    4.992      63.735
2015    1       21    14   7    5.3560   521.0    4.988      63.695
2015    1       21    14  12    5.3514   521.0    4.985      63.655
2015    1       21    14  18    5.3468   520.9    4.981      63.615
2015    1       21    14  23    5.3423   520.9    4.978      63.575
2015    1       21    14  28    5.3377   520.9    4.974      63.535
2015    1       21    14  34    5.3332   520.8    4.971      63.495
2015    1       21    14  39    5.3288   520.8    4.967      63.454
2015    1       21    14  45    5.3243   520.8    4.964      63.414
2015    1       21    14  50    5.3198   520.7    4.961      63.373
2015    1       21    14  55    5.3154   520.7    4.957      63.333
2015    1       21    15   1    5.3110   520.7    4.954      63.292
2015    1       21    15   6    5.3066   520.6    4.951      63.252
2015    1       21    15  12    5.3022   520.6    4.948      63.211
2015    1       21    15  17    5.2978   520.6    4.945      63.170
2015    1       21    15  22    5.2934   520.5    4.942      63.129
2015    1       21    15  28    5.2891   520.5    4.939      63.088
2015    1       21    15  33    5.2847   520.4    4.936      63.047
2015    1       21    15  39    5.2804   520.4    4.933      63.007
2015    1       21    15  44    5.2761   520.3    4.930      62.966
2015    1       21    15  49    5.2718   520.3    4.927      62.925
2015    1       21    15  55    5.2675   520.3    4.924      62.884
2015    1       21    16   0    5.2632   520.2    4.921      62.843
2015    1       21    16   6    5.2590   520.2    4.919      62.803
2015    1       21    16  11    5.2547   520.1    4.916      62.762
2015    1       21    16  17    5.2505   520.1    4.913      62.721
2015    1       21    16  22    5.2463   520.0    4.911      62.681
2015    1       21    16  27    5.2421   520.0    4.908      62.641
2015    1       21    16  33    5.2379   519.9    4.905      62.601
2015    1       21    16  38    5.2337   519.9    4.903      62.561
2015    1       21    16  44    5.2296   519.8    4.900      62.521
2015    1       21    16  49    5.2254   519.8    4.898      62.481
2015    1       21    16  54    5.2213   519.7    4.895      62.442
2015    1       21    17   0    5.2172   519.6    4.893      62.403
2015    1       21    17   5    5.2131   519.6    4.890      62.364
2015    1       21    17  11    5.2090   519.5    4.888      62.325
2015    1       21    17  16    5.2050   519.5    4.886      62.286
2015    1       21    17  21    5.2009   519.4    4.883      62.248
2015    1       21    17  27    5.1969   519.4    4.881      62.209
2015    1       21    17  32    5.1928   519.3    4.878      62.171
2015    1       21    17  38    5.1888   519.2    4.876      62.133
2015    1       21    17  43    5.1848   519.2    4.874      62.095
2015    1       21    17  49    5.1808   519.1    4.871      62.057
2015    1       21    17  54    5.1768   519.1    4.869      62.019
2015    1       21    17  59    5.1729   519.0    4.867      61.981
2015    1       21    18   5    5.1689   518.9    4.864      61.943
2015    1       21    18  10    5.1650   518.9    4.862      61.905
2015    1       21    18  16    5.1610   518.8    4.860      61.867
2015    1       21    18  21    5.1571   518.7    4.857      61.829
2015    1       21    18  26    5.1532   518.7    4.855      61.791
2015    1       21    18  32    5.1493   518.6    4.853      61.753
2015    1       21    18  37    5.1454   518.5    4.850      61.714
2015    1       21    18  43    5.1416   518.5    4.848      61.676
2015    1       21    18  48    5.1377   518.4    4.845      61.637
2015    1       21    18  54    5.1339   518.3    4.843      61.599
2015    1       21    18  59    5.1300   518.2    4.840      61.559
2015    1       21    19   4    5.1262   518.2    4.838      61.520
2015    1       21    19  10    5.1224   518.1    4.836      61.481
2015    1       21    19  15    5.1186   518.0    4.833      61.442
2015    1       21    19  21    5.1148   518.0    4.831      61.402
2015    1       21    19  26    5.1111   517.9    4.828      61.362
2015    1       21    19  31    5.1073   517.8    4.826      61.322
2015    1       21    19  37    5.1036   517.7    4.823      61.282
2015    1       21    19  42    5.0999   517.7    4.821      61.242
2015    1       21    19  48    5.0961   517.6    4.818      61.201
2015    1       21    19  53    5.0925   517.5    4.816      61.161
2015    1       21    19  59    5.0888   517.4    4.814      61.120
2015    1       21    20   4    5.0851   517.3    4.811      61.079
2015    1       21    20   9    5.0814   517.3    4.809      61.038
2015    1       21    20  15    5.0778   517.2    4.806      60.997
2015    1       21    20  20    5.0742   517.1    4.804      60.956
2015    1       21    20  26    5.0705   517.0    4.802      60.914
2015    1       21    20  31    5.0669   517.0    4.799      60.873
2015    1       21    20  36    5.0633   516.9    4.797      60.832
2015    1       21    20  42    5.0598   516.8    4.795      60.791
2015    1       21    20  47    5.0562   516.7    4.792      60.749
2015    1       21    20  53    5.0527   516.6    4.790      60.708
2015    1       21    20  58    5.0492   516.6    4.788      60.667
2015    1       21    21   3    5.0456   516.5    4.786      60.626
2015    1       21    21   9    5.0422   516.4    4.784      60.585
2015    1       21    21  14    5.0387   516.3    4.782      60.544
2015    1       21    21  20    5.0352   516.2    4.780      60.503
2015    1       21    21  25    5.0318   516.2    4.778      60.463
2015    1       21    21  30    5.0283   516.1    4.776      60.422
2015    1       21    21  36    5.0249   516.0    4.774      60.382
2015    1       21    21  41    5.0215   515.9    4.773      60.342
2015    1       21    21  47    5.0181   515.8    4.771      60.303
2015    1       21    21  52    5.0147   515.8    4.769      60.263
2015    1       21    21  58    5.0113   515.7    4.768      60.224
2015    1       21    22   3    5.0079   515.6    4.766      60.185
2015    1       21    22   8    5.0045   515.5    4.765      60.146
2015    1       21    22  14    5.0012   515.4    4.763      60.108
2015    1       21    22  19    4.9978   515.4    4.762      60.070
2015    1       21    22  25    4.9944   515.3    4.760      60.032
2015    1       21    22  30    4.9911   515.2    4.759      59.994
2015    1       21    22  35    4.9877   515.1    4.758      59.956
2015    1       21    22  41    4.9843   515.0    4.756      59.919
2015    1       21    22  46    4.9810   515.0    4.755      59.882
2015    1       21    22  52    4.9776   514.9    4.754      59.845
2015    1       21    22  57    4.9743   514.8    4.753      59.808
2015    1       21    23   2    4.9709   514.7    4.752      59.771
2015    1       21    23   8    4.9676   514.6    4.751      59.735
2015    1       21    23  13    4.9642   514.5    4.750      59.698
2015    1       21    23  19    4.9608   514.5    4.748      59.662
2015    1       21    23  24    4.9575   514.4    4.747      59.626
2015    1       21    23  29    4.9542   514.3    4.746      59.589
2015    1       21    23  35    4.9508   514.2    4.745      59.553
2015    1       21    23  40    4.9475   514.1    4.744      59.517
2015    1       21    23  46    4.9442   514.0    4.743      59.482
2015    1       21    23  51    4.9409   513.9    4.742      59.446
2015    1       21    23  57    4.9377   513.8    4.741      59.411
2015    1       22     0   2    4.9344   513.7    4.740      59.375
2015    1       22     0   7    4.9311   513.6    4.739      59.340
2015    1       22     0  13    4.9279   513.6    4.738      59.305
2015    1       22     0  18    4.9247   513.5    4.737      59.270
2015    1       22     0  24    4.9215   513.4    4.736      59.236
2015    1       22     0  29    4.9184   513.3    4.735      59.201
2015    1       22     0  34    4.9153   513.2    4.735      59.167
2015    1       22     0  40    4.9121   513.1    4.734      59.132
2015    1       22     0  45    4.9091   513.0    4.733      59.098
2015    1       22     0  51    4.9060   512.9    4.732      59.065
2015    1       22     0  56    4.9030   512.8    4.731      59.031
2015    1       22     1   1    4.9000   512.7    4.731      58.998
2015    1       22     1   7    4.8971   512.6    4.730      58.964
2015    1       22     1  12    4.8942   512.5    4.729      58.931
2015    1       22     1  18    4.8913   512.4    4.729      58.898
2015    1       22     1  23    4.8884   512.3    4.728      58.865
2015    1       22     1  29    4.8856   512.2    4.728      58.833
2015    1       22     1  34    4.8828   512.1    4.727      58.800
2015    1       22     1  39    4.8801   512.0    4.727      58.768
2015    1       22     1  45    4.8773   511.9    4.726      58.736
2015    1       22     1  50    4.8746   511.8    4.726      58.704
2015    1       22     1  56    4.8719   511.7    4.725      58.672
2015    1       22     2   1    4.8692   511.6    4.725      58.640
2015    1       22     2   6    4.8664   511.6    4.724      58.608
2015    1       22     2  12    4.8637   511.5    4.724      58.575
2015    1       22     2  17    4.8610   511.4    4.724      58.544
2015    1       22     2  23    4.8582   511.3    4.723      58.511
2015    1       22     2  28    4.8555   511.2    4.723      58.479
2015    1       22     2  34    4.8527   511.1    4.723      58.447
2015    1       22     2  39    4.8500   511.0    4.722      58.414
2015    1       22     2  44    4.8472   510.9    4.722      58.382
2015    1       22     2  50    4.8444   510.8    4.721      58.349
2015    1       22     2  55    4.8416   510.7    4.721      58.316
2015    1       22     3   1    4.8388   510.6    4.721      58.283
2015    1       22     3   6    4.8360   510.5    4.720      58.250
2015    1       22     3  11    4.8332   510.4    4.719      58.216
2015    1       22     3  17    4.8304   510.3    4.719      58.182
2015    1       22     3  22    4.8276   510.2    4.718      58.148
2015    1       22     3  28    4.8248   510.1    4.718      58.114
2015    1       22     3  33    4.8220   510.0    4.717      58.079
2015    1       22     3  38    4.8192   509.9    4.716      58.044
2015    1       22     3  44    4.8164   509.8    4.716      58.009
2015    1       22     3  49    4.8136   509.7    4.715      57.973
2015    1       22     3  55    4.8108   509.6    4.714      57.938
2015    1       22     4   0    4.8081   509.5    4.713      57.902
2015    1       22     4   6    4.8053   509.4    4.712      57.865
2015    1       22     4  11    4.8026   509.3    4.712      57.829
2015    1       22     4  16    4.7998   509.2    4.711      57.792
2015    1       22     4  22    4.7971   509.1    4.710      57.755
2015    1       22     4  27    4.7943   509.0    4.709      57.719
2015    1       22     4  33    4.7916   508.9    4.708      57.681
2015    1       22     4  38    4.7889   508.8    4.707      57.644
2015    1       22     4  43    4.7862   508.7    4.706      57.606
2015    1       22     4  49    4.7835   508.6    4.705      57.569
2015    1       22     4  54    4.7808   508.5    4.705      57.531
2015    1       22     5   0    4.7781   508.4    4.704      57.493
2015    1       22     5   5    4.7755   508.3    4.703      57.455
2015    1       22     5  10    4.7728   508.2    4.702      57.417
2015    1       22     5  16    4.7702   508.1    4.701      57.379
2015    1       22     5  21    4.7675   508.0    4.700      57.340
2015    1       22     5  27    4.7649   507.9    4.699      57.302
2015    1       22     5  32    4.7623   507.8    4.698      57.263
2015    1       22     5  37    4.7597   507.6    4.697      57.225
2015    1       22     5  43    4.7570   507.5    4.696      57.186
2015    1       22     5  48    4.7545   507.4    4.695      57.147
2015    1       22     5  54    4.7519   507.3    4.694      57.108
2015    1       22     5  59    4.7493   507.2    4.693      57.069
2015    1       22     6   4    4.7467   507.1    4.691      57.030
2015    1       22     6  10    4.7441   507.0    4.690      56.991
2015    1       22     6  15    4.7416   506.9    4.689      56.952
2015    1       22     6  21    4.7390   506.8    4.688      56.912
2015    1       22     6  26    4.7365   506.7    4.687      56.873
2015    1       22     6  32    4.7340   506.5    4.686      56.833
2015    1       22     6  37    4.7314   506.4    4.685      56.794
2015    1       22     6  42    4.7289   506.3    4.684      56.754
2015    1       22     6  48    4.7264   506.2    4.683      56.715
2015    1       22     6  53    4.7239   506.1    4.682      56.675
2015    1       22     6  59    4.7215   506.0    4.681      56.636
2015    1       22     7   4    4.7190   505.9    4.680      56.596
2015    1       22     7   9    4.7166   505.7    4.679      56.556
2015    1       22     7  15    4.7141   505.6    4.679      56.517
2015    1       22     7  20    4.7117   505.5    4.678      56.478
2015    1       22     7  26    4.7093   505.4    4.677      56.438
2015    1       22     7  31    4.7069   505.3    4.676      56.399
2015    1       22     7  36    4.7046   505.2    4.675      56.360
2015    1       22     7  42    4.7022   505.0    4.674      56.321
2015    1       22     7  47    4.6999   504.9    4.674      56.282
2015    1       22     7  53    4.6975   504.8    4.673      56.243
2015    1       22     7  58    4.6952   504.7    4.672      56.205
2015    1       22     8   4    4.6929   504.6    4.671      56.166
2015    1       22     8   9    4.6907   504.5    4.671      56.128
2015    1       22     8  14    4.6884   504.4    4.670      56.090
2015    1       22     8  20    4.6861   504.2    4.670      56.052
2015    1       22     8  25    4.6839   504.1    4.669      56.014
2015    1       22     8  31    4.6816   504.0    4.669      55.977
2015    1       22     8  36    4.6794   503.9    4.668      55.939
2015    1       22     8  41    4.6772   503.8    4.668      55.902
2015    1       22     8  47    4.6750   503.7    4.667      55.865
2015    1       22     8  52    4.6728   503.5    4.667      55.828
2015    1       22     8  58    4.6706   503.4    4.667      55.791
2015    1       22     9   3    4.6684   503.3    4.666      55.755
2015    1       22     9   9    4.6662   503.2    4.666      55.719
2015    1       22     9  14    4.6641   503.1    4.666      55.683
2015    1       22     9  19    4.6619   503.0    4.666      55.647
2015    1       22     9  25    4.6597   502.8    4.666      55.612
2015    1       22     9  30    4.6576   502.7    4.666      55.576
2015    1       22     9  36    4.6554   502.6    4.666      55.541
2015    1       22     9  41    4.6533   502.5    4.666      55.507
2015    1       22     9  46    4.6511   502.4    4.666      55.472
2015    1       22     9  52    4.6489   502.3    4.666      55.438
2015    1       22     9  57    4.6467   502.1    4.666      55.404
2015    1       22    10   3    4.6445   502.0    4.666      55.370
2015    1       22    10   8    4.6424   501.9    4.667      55.336
2015    1       22    10  14    4.6402   501.8    4.667      55.303
2015    1       22    10  19    4.6380   501.7    4.667      55.270
2015    1       22    10  24    4.6358   501.6    4.668      55.238
2015    1       22    10  30    4.6336   501.4    4.668      55.206
2015    1       22    10  35    4.6314   501.3    4.669      55.174
2015    1       22    10  41    4.6292   501.2    4.669      55.142
2015    1       22    10  46    4.6269   501.1    4.670      55.111
2015    1       22    10  51    4.6247   501.0    4.670      55.079
2015    1       22    10  57    4.6226   500.9    4.671      55.048
2015    1       22    11   2    4.6204   500.7    4.671      55.017
2015    1       22    11   8    4.6182   500.6    4.672      54.986
2015    1       22    11  13    4.6160   500.5    4.672      54.956
2015    1       22    11  18    4.6138   500.4    4.673      54.925
2015    1       22    11  24    4.6116   500.3    4.674      54.895
2015    1       22    11  29    4.6094   500.2    4.675      54.865
2015    1       22    11  35    4.6073   500.1    4.675      54.835
2015    1       22    11  40    4.6051   499.9    4.676      54.805
2015    1       22    11  46    4.6029   499.8    4.677      54.775
2015    1       22    11  51    4.6007   499.7    4.677      54.745
2015    1       22    11  56    4.5986   499.6    4.678      54.714
2015    1       22    12   2    4.5964   499.5    4.679      54.684
2015    1       22    12   7    4.5942   499.4    4.680      54.654
2015    1       22    12  13    4.5920   499.2    4.680      54.624
2015    1       22    12  18    4.5898   499.1    4.681      54.594
2015    1       22    12  23    4.5876   499.0    4.682      54.564
2015    1       22    12  29    4.5854   498.9    4.682      54.534
2015    1       22    12  34    4.5832   498.8    4.683      54.503
2015    1       22    12  40    4.5811   498.7    4.684      54.472
2015    1       22    12  45    4.5789   498.5    4.684      54.442
2015    1       22    12  50    4.5767   498.4    4.685      54.411
2015    1       22    12  56    4.5745   498.3    4.685      54.380
2015    1       22    13   1    4.5723   498.2    4.686      54.348
2015    1       22    13   7    4.5701   498.1    4.686      54.317
2015    1       22    13  12    4.5680   498.0    4.686      54.285
2015    1       22    13  17    4.5658   497.8    4.687      54.253
2015    1       22    13  23    4.5636   497.7    4.687      54.221
2015    1       22    13  28    4.5615   497.6    4.688      54.189
2015    1       22    13  34    4.5594   497.5    4.688      54.157
2015    1       22    13  39    4.5572   497.4    4.688      54.125
2015    1       22    13  44    4.5551   497.3    4.688      54.092
2015    1       22    13  50    4.5530   497.1    4.689      54.059
2015    1       22    13  55    4.5508   497.0    4.689      54.026
2015    1       22    14   1    4.5487   496.9    4.689      53.993
2015    1       22    14   6    4.5466   496.8    4.689      53.959
2015    1       22    14  12    4.5445   496.7    4.689      53.926
2015    1       22    14  17    4.5424   496.5    4.689      53.892
2015    1       22    14  22    4.5404   496.4    4.689      53.858
2015    1       22    14  28    4.5383   496.3    4.689      53.824
2015    1       22    14  33    4.5362   496.2    4.689      53.789
2015    1       22    14  39    4.5341   496.1    4.689      53.755
2015    1       22    14  44    4.5321   495.9    4.689      53.720
2015    1       22    14  49    4.5300   495.8    4.689      53.684
2015    1       22    14  55    4.5279   495.7    4.689      53.649
2015    1       22    15   0    4.5258   495.6    4.688      53.613
2015    1       22    15   6    4.5238   495.5    4.688      53.578
2015    1       22    15  11    4.5217   495.4    4.688      53.541
2015    1       22    15  16    4.5196   495.2    4.687      53.505
2015    1       22    15  22    4.5175   495.1    4.687      53.469
2015    1       22    15  27    4.5155   495.0    4.687      53.432
2015    1       22    15  33    4.5134   494.9    4.686      53.395
2015    1       22    15  38    4.5113   494.7    4.686      53.358
2015    1       22    15  44    4.5093   494.6    4.685      53.321
2015    1       22    15  49    4.5072   494.5    4.685      53.284
2015    1       22    15  54    4.5051   494.4    4.684      53.246
2015    1       22    16   0    4.5030   494.2    4.684      53.209
2015    1       22    16   5    4.5010   494.1    4.683      53.171
2015    1       22    16  11    4.4989   494.0    4.683      53.133
2015    1       22    16  16    4.4968   493.9    4.682      53.095
2015    1       22    16  21    4.4947   493.8    4.681      53.056
2015    1       22    16  27    4.4927   493.6    4.681      53.018
2015    1       22    16  32    4.4906   493.5    4.680      52.979
2015    1       22    16  38    4.4885   493.4    4.679      52.940
2015    1       22    16  43    4.4864   493.2    4.679      52.901
2015    1       22    16  49    4.4844   493.1    4.678      52.862
2015    1       22    16  54    4.4823   493.0    4.677      52.822
2015    1       22    16  59    4.4802   492.9    4.677      52.783
2015    1       22    17   5    4.4781   492.7    4.676      52.743
2015    1       22    17  10    4.4761   492.6    4.675      52.703
2015    1       22    17  16    4.4740   492.5    4.675      52.663
2015    1       22    17  21    4.4719   492.3    4.674      52.623
2015    1       22    17  26    4.4699   492.2    4.674      52.583
2015    1       22    17  32    4.4678   492.1    4.673      52.543
2015    1       22    17  37    4.4658   492.0    4.672      52.503
2015    1       22    17  43    4.4637   491.8    4.672      52.463
2015    1       22    17  48    4.4617   491.7    4.671      52.423
2015    1       22    17  53    4.4596   491.6    4.671      52.383
2015    1       22    17  59    4.4576   491.4    4.670      52.343
2015    1       22    18   4    4.4556   491.3    4.670      52.304
2015    1       22    18  10    4.4536   491.2    4.669      52.264
2015    1       22    18  15    4.4516   491.0    4.669      52.224
2015    1       22    18  21    4.4496   490.9    4.669      52.185
2015    1       22    18  26    4.4476   490.8    4.669      52.146
2015    1       22    18  31    4.4456   490.6    4.668      52.107
2015    1       22    18  37    4.4436   490.5    4.668      52.068
2015    1       22    18  42    4.4416   490.3    4.668      52.029
2015    1       22    18  48    4.4397   490.2    4.668      51.990
2015    1       22    18  53    4.4377   490.1    4.668      51.952
2015    1       22    18  58    4.4357   489.9    4.668      51.914
2015    1       22    19   4    4.4338   489.8    4.668      51.875
2015    1       22    19   9    4.4319   489.7    4.668      51.837
2015    1       22    19  15    4.4300   489.5    4.668      51.799
2015    1       22    19  20    4.4280   489.4    4.668      51.762
2015    1       22    19  25    4.4261   489.2    4.669      51.724
2015    1       22    19  31    4.4242   489.1    4.669      51.687
2015    1       22    19  36    4.4224   489.0    4.669      51.649
2015    1       22    19  42    4.4205   488.8    4.670      51.612
2015    1       22    19  47    4.4186   488.7    4.670      51.575
2015    1       22    19  52    4.4167   488.5    4.671      51.538
2015    1       22    19  58    4.4149   488.4    4.671      51.502
2015    1       22    20   3    4.4130   488.3    4.672      51.466
2015    1       22    20   9    4.4112   488.1    4.673      51.429
2015    1       22    20  14    4.4094   488.0    4.674      51.394
2015    1       22    20  20    4.4075   487.8    4.675      51.358
2015    1       22    20  25    4.4058   487.7    4.675      51.323
2015    1       22    20  30    4.4040   487.6    4.676      51.288
2015    1       22    20  36    4.4022   487.4    4.677      51.254
2015    1       22    20  41    4.4005   487.3    4.679      51.221
2015    1       22    20  47    4.3987   487.1    4.680      51.188
2015    1       22    20  52    4.3970   487.0    4.681      51.156
2015    1       22    20  57    4.3953   486.8    4.682      51.123
2015    1       22    21   3    4.3936   486.7    4.683      51.092
2015    1       22    21   8    4.3919   486.6    4.685      51.061
2015    1       22    21  14    4.3903   486.4    4.686      51.030
2015    1       22    21  19    4.3887   486.3    4.687      51.000
2015    1       22    21  24    4.3870   486.1    4.689      50.970
2015    1       22    21  30    4.3854   486.0    4.690      50.940
2015    1       22    21  35    4.3838   485.9    4.692      50.910
2015    1       22    21  41    4.3822   485.7    4.693      50.880
2015    1       22    21  46    4.3807   485.6    4.695      50.851
2015    1       22    21  51    4.3791   485.5    4.696      50.822
2015    1       22    21  57    4.3775   485.3    4.698      50.792
2015    1       22    22   2    4.3759   485.2    4.700      50.763
2015    1       22    22   8    4.3743   485.0    4.701      50.734
2015    1       22    22  13    4.3727   484.9    4.703      50.704
2015    1       22    22  19    4.3712   484.8    4.704      50.675
2015    1       22    22  24    4.3696   484.6    4.706      50.645
2015    1       22    22  29    4.3680   484.5    4.707      50.615
2015    1       22    22  35    4.3664   484.3    4.709      50.585
2015    1       22    22  40    4.3648   484.2    4.711      50.555
2015    1       22    22  46    4.3632   484.1    4.712      50.525
2015    1       22    22  51    4.3615   483.9    4.714      50.494
2015    1       22    22  56    4.3599   483.8    4.715      50.463
2015    1       22    23   2    4.3583   483.6    4.716      50.432
2015    1       22    23   7    4.3566   483.5    4.718      50.401
2015    1       22    23  13    4.3550   483.3    4.719      50.369
2015    1       22    23  18    4.3534   483.2    4.721      50.337
2015    1       22    23  24    4.3517   483.0    4.722      50.305
2015    1       22    23  29    4.3501   482.9    4.723      50.272
2015    1       22    23  34    4.3484   482.7    4.725      50.240
2015    1       22    23  40    4.3468   482.6    4.726      50.207
2015    1       22    23  45    4.3452   482.4    4.727      50.174
2015    1       22    23  51    4.3436   482.3    4.728      50.141
2015    1       22    23  56    4.3419   482.1    4.730      50.108
2015    1       23     0   2    4.3403   482.0    4.731      50.074
