year    month   day   hour  minute  B_enl V_enl   n_enl       T_enl
[year] [month] [day] [hour][minute] [nT]  [km/s]  [cm-3]      [kK]
2018    5       31     0   1    2.6933   456.0    5.586      34.297
2018    5       31     0   8    2.6967   456.0    5.592      34.336
2018    5       31     0  15    2.7001   456.1    5.597      34.375
2018    5       31     0  22    2.7035   456.1    5.602      34.413
2018    5       31     0  30    2.7068   456.1    5.607      34.450
2018    5       31     0  37    2.7101   456.2    5.612      34.487
2018    5       31     0  44    2.7134   456.2    5.617      34.523
2018    5       31     0  51    2.7167   456.2    5.622      34.559
2018    5       31     0  59    2.7200   456.3    5.627      34.594
2018    5       31     1   6    2.7233   456.3    5.632      34.630
2018    5       31     1  13    2.7265   456.3    5.637      34.665
2018    5       31     1  20    2.7298   456.4    5.643      34.700
2018    5       31     1  28    2.7331   456.4    5.648      34.735
2018    5       31     1  35    2.7363   456.4    5.653      34.770
2018    5       31     1  42    2.7396   456.5    5.658      34.806
2018    5       31     1  49    2.7429   456.5    5.664      34.842
2018    5       31     1  57    2.7462   456.6    5.670      34.878
2018    5       31     2   4    2.7495   456.6    5.675      34.915
2018    5       31     2  11    2.7528   456.7    5.682      34.952
2018    5       31     2  19    2.7561   456.7    5.688      34.991
2018    5       31     2  26    2.7595   456.7    5.695      35.030
2018    5       31     2  33    2.7629   456.8    5.702      35.069
2018    5       31     2  40    2.7663   456.8    5.709      35.111
2018    5       31     2  48    2.7697   456.9    5.716      35.154
2018    5       31     2  55    2.7731   457.0    5.724      35.201
2018    5       31     3   2    2.7766   457.1    5.731      35.250
2018    5       31     3   9    2.7801   457.2    5.738      35.302
2018    5       31     3  17    2.7835   457.2    5.746      35.356
2018    5       31     3  24    2.7869   457.3    5.753      35.412
2018    5       31     3  31    2.7903   457.4    5.760      35.467
2018    5       31     3  38    2.7936   457.5    5.767      35.523
2018    5       31     3  46    2.7969   457.6    5.773      35.578
2018    5       31     3  53    2.8002   457.7    5.780      35.633
2018    5       31     4   0    2.8035   457.8    5.787      35.688
2018    5       31     4   7    2.8068   457.9    5.793      35.742
2018    5       31     4  15    2.8100   458.0    5.799      35.797
2018    5       31     4  22    2.8133   458.2    5.806      35.852
2018    5       31     4  29    2.8165   458.3    5.812      35.906
2018    5       31     4  36    2.8198   458.4    5.818      35.960
2018    5       31     4  44    2.8230   458.5    5.824      36.015
2018    5       31     4  51    2.8263   458.6    5.831      36.069
2018    5       31     4  58    2.8296   458.7    5.837      36.124
2018    5       31     5   5    2.8329   458.9    5.843      36.178
2018    5       31     5  13    2.8361   459.0    5.850      36.233
2018    5       31     5  20    2.8394   459.1    5.856      36.288
2018    5       31     5  27    2.8428   459.2    5.863      36.343
2018    5       31     5  34    2.8461   459.4    5.869      36.399
2018    5       31     5  42    2.8495   459.5    5.876      36.454
2018    5       31     5  49    2.8529   459.6    5.883      36.510
2018    5       31     5  56    2.8563   459.7    5.890      36.566
2018    5       31     6   3    2.8597   459.9    5.898      36.622
2018    5       31     6  11    2.8632   460.0    5.905      36.681
2018    5       31     6  18    2.8668   460.2    5.912      36.743
2018    5       31     6  25    2.8703   460.3    5.920      36.808
2018    5       31     6  32    2.8739   460.5    5.927      36.876
2018    5       31     6  40    2.8774   460.7    5.933      36.947
2018    5       31     6  47    2.8808   460.8    5.940      37.017
2018    5       31     6  54    2.8842   461.0    5.945      37.088
2018    5       31     7   1    2.8875   461.2    5.950      37.157
2018    5       31     7   9    2.8907   461.3    5.955      37.225
2018    5       31     7  16    2.8939   461.5    5.959      37.292
2018    5       31     7  23    2.8970   461.6    5.963      37.357
2018    5       31     7  30    2.9000   461.8    5.966      37.420
2018    5       31     7  38    2.9029   462.0    5.969      37.482
2018    5       31     7  45    2.9058   462.1    5.971      37.542
2018    5       31     7  52    2.9086   462.3    5.973      37.600
2018    5       31     8   0    2.9113   462.4    5.975      37.656
2018    5       31     8   7    2.9140   462.6    5.976      37.710
2018    5       31     8  14    2.9167   462.7    5.977      37.763
2018    5       31     8  21    2.9193   462.9    5.977      37.814
2018    5       31     8  29    2.9218   463.0    5.978      37.864
2018    5       31     8  36    2.9243   463.2    5.978      37.912
2018    5       31     8  43    2.9268   463.3    5.978      37.958
2018    5       31     8  50    2.9293   463.5    5.977      38.004
2018    5       31     8  58    2.9317   463.6    5.977      38.048
2018    5       31     9   5    2.9341   463.8    5.976      38.091
2018    5       31     9  12    2.9364   463.9    5.976      38.133
2018    5       31     9  19    2.9387   464.1    5.975      38.174
2018    5       31     9  27    2.9410   464.2    5.974      38.214
2018    5       31     9  34    2.9433   464.3    5.973      38.253
2018    5       31     9  41    2.9455   464.5    5.972      38.292
2018    5       31     9  48    2.9478   464.6    5.971      38.330
2018    5       31     9  56    2.9500   464.8    5.969      38.367
2018    5       31    10   3    2.9522   464.9    5.968      38.404
2018    5       31    10  10    2.9543   465.1    5.967      38.441
2018    5       31    10  17    2.9565   465.2    5.966      38.477
2018    5       31    10  25    2.9586   465.3    5.965      38.513
2018    5       31    10  32    2.9607   465.5    5.963      38.548
2018    5       31    10  39    2.9629   465.6    5.962      38.584
2018    5       31    10  46    2.9650   465.8    5.961      38.620
2018    5       31    10  54    2.9671   465.9    5.960      38.655
2018    5       31    11   1    2.9692   466.1    5.959      38.690
2018    5       31    11   8    2.9712   466.2    5.958      38.726
2018    5       31    11  15    2.9733   466.4    5.957      38.761
2018    5       31    11  23    2.9754   466.5    5.957      38.797
2018    5       31    11  30    2.9775   466.7    5.956      38.832
2018    5       31    11  37    2.9795   466.8    5.955      38.867
2018    5       31    11  44    2.9816   467.0    5.955      38.903
2018    5       31    11  52    2.9836   467.1    5.955      38.938
2018    5       31    11  59    2.9857   467.3    5.954      38.974
2018    5       31    12   6    2.9878   467.4    5.954      39.009
2018    5       31    12  13    2.9899   467.6    5.955      39.045
2018    5       31    12  21    2.9919   467.8    5.955      39.080
2018    5       31    12  28    2.9940   467.9    5.956      39.116
2018    5       31    12  35    2.9961   468.1    5.957      39.152
2018    5       31    12  42    2.9982   468.2    5.958      39.188
2018    5       31    12  50    3.0004   468.4    5.960      39.225
2018    5       31    12  57    3.0026   468.5    5.962      39.262
2018    5       31    13   4    3.0048   468.7    5.965      39.300
2018    5       31    13  11    3.0071   468.9    5.969      39.338
2018    5       31    13  19    3.0095   469.0    5.973      39.378
2018    5       31    13  26    3.0120   469.2    5.978      39.421
2018    5       31    13  33    3.0145   469.3    5.984      39.467
2018    5       31    13  40    3.0172   469.5    5.989      39.519
2018    5       31    13  48    3.0199   469.7    5.996      39.575
2018    5       31    13  55    3.0226   469.9    6.002      39.636
2018    5       31    14   2    3.0254   470.1    6.009      39.699
2018    5       31    14  10    3.0282   470.3    6.017      39.765
2018    5       31    14  17    3.0310   470.5    6.024      39.834
2018    5       31    14  24    3.0339   470.7    6.032      39.903
2018    5       31    14  31    3.0368   470.9    6.041      39.974
2018    5       31    14  39    3.0398   471.1    6.049      40.051
2018    5       31    14  46    3.0428   471.3    6.058      40.131
2018    5       31    14  53    3.0459   471.5    6.067      40.217
2018    5       31    15   0    3.0489   471.8    6.075      40.308
2018    5       31    15   8    3.0519   472.0    6.082      40.402
2018    5       31    15  15    3.0548   472.3    6.089      40.497
2018    5       31    15  22    3.0576   472.5    6.095      40.590
2018    5       31    15  29    3.0602   472.8    6.100      40.681
2018    5       31    15  37    3.0627   473.1    6.103      40.768
2018    5       31    15  44    3.0651   473.3    6.107      40.851
2018    5       31    15  51    3.0673   473.6    6.109      40.932
2018    5       31    15  58    3.0694   473.8    6.110      41.008
2018    5       31    16   6    3.0714   474.1    6.111      41.081
2018    5       31    16  13    3.0733   474.3    6.110      41.151
2018    5       31    16  20    3.0751   474.5    6.110      41.217
2018    5       31    16  27    3.0768   474.8    6.108      41.281
2018    5       31    16  35    3.0785   475.0    6.107      41.341
2018    5       31    16  42    3.0800   475.3    6.104      41.399
2018    5       31    16  49    3.0815   475.5    6.102      41.455
2018    5       31    16  56    3.0830   475.8    6.099      41.508
2018    5       31    17   4    3.0843   476.0    6.095      41.559
2018    5       31    17  11    3.0857   476.3    6.091      41.608
2018    5       31    17  18    3.0869   476.5    6.087      41.654
2018    5       31    17  25    3.0881   476.7    6.083      41.699
2018    5       31    17  33    3.0893   477.0    6.078      41.742
2018    5       31    17  40    3.0904   477.2    6.073      41.783
2018    5       31    17  47    3.0915   477.5    6.068      41.823
2018    5       31    17  54    3.0925   477.7    6.063      41.861
2018    5       31    18   2    3.0934   477.9    6.057      41.898
2018    5       31    18   9    3.0944   478.2    6.051      41.934
2018    5       31    18  16    3.0953   478.4    6.046      41.968
2018    5       31    18  23    3.0961   478.7    6.040      42.001
2018    5       31    18  31    3.0970   478.9    6.034      42.033
2018    5       31    18  38    3.0978   479.1    6.028      42.064
2018    5       31    18  45    3.0985   479.4    6.021      42.094
2018    5       31    18  52    3.0993   479.6    6.015      42.123
2018    5       31    19   0    3.1000   479.9    6.009      42.152
2018    5       31    19   7    3.1007   480.1    6.002      42.179
2018    5       31    19  14    3.1014   480.3    5.996      42.206
2018    5       31    19  21    3.1021   480.6    5.990      42.232
2018    5       31    19  29    3.1027   480.8    5.983      42.258
2018    5       31    19  36    3.1034   481.0    5.977      42.282
2018    5       31    19  43    3.1040   481.3    5.971      42.307
2018    5       31    19  51    3.1046   481.5    5.965      42.331
2018    5       31    19  58    3.1053   481.7    5.959      42.354
2018    5       31    20   5    3.1059   482.0    5.953      42.377
2018    5       31    20  12    3.1066   482.2    5.947      42.400
2018    5       31    20  20    3.1073   482.4    5.942      42.423
2018    5       31    20  27    3.1080   482.6    5.937      42.446
2018    5       31    20  34    3.1086   482.9    5.933      42.469
2018    5       31    20  41    3.1094   483.1    5.928      42.492
2018    5       31    20  49    3.1102   483.3    5.925      42.517
2018    5       31    20  56    3.1110   483.5    5.921      42.542
2018    5       31    21   3    3.1119   483.7    5.919      42.569
2018    5       31    21  10    3.1128   483.9    5.917      42.596
2018    5       31    21  18    3.1138   484.2    5.915      42.626
2018    5       31    21  25    3.1149   484.4    5.915      42.657
2018    5       31    21  32    3.1161   484.6    5.915      42.692
2018    5       31    21  39    3.1174   484.8    5.916      42.727
2018    5       31    21  47    3.1187   485.0    5.918      42.765
2018    5       31    21  54    3.1203   485.2    5.921      42.807
2018    5       31    22   1    3.1218   485.5    5.925      42.856
2018    5       31    22   8    3.1235   485.7    5.929      42.911
2018    5       31    22  16    3.1252   486.0    5.932      42.972
2018    5       31    22  23    3.1269   486.2    5.936      43.039
2018    5       31    22  30    3.1285   486.5    5.939      43.109
2018    5       31    22  37    3.1301   486.8    5.942      43.179
2018    5       31    22  45    3.1315   487.1    5.944      43.249
2018    5       31    22  52    3.1329   487.3    5.946      43.318
2018    5       31    22  59    3.1342   487.6    5.947      43.385
2018    5       31    23   6    3.1354   487.9    5.947      43.452
2018    5       31    23  14    3.1364   488.2    5.946      43.517
2018    5       31    23  21    3.1374   488.4    5.944      43.582
2018    5       31    23  28    3.1383   488.7    5.942      43.645
2018    5       31    23  35    3.1390   489.0    5.940      43.706
2018    5       31    23  43    3.1397   489.3    5.937      43.766
2018    5       31    23  50    3.1403   489.5    5.933      43.823
2018    5       31    23  57    3.1408   489.8    5.929      43.879
2018    6        1     0   4    3.1412   490.1    5.925      43.933
2018    6        1     0  12    3.1416   490.4    5.920      43.985
2018    6        1     0  19    3.1419   490.6    5.915      44.036
2018    6        1     0  26    3.1420   490.9    5.909      44.084
2018    6        1     0  33    3.1422   491.2    5.903      44.131
2018    6        1     0  41    3.1422   491.5    5.897      44.176
2018    6        1     0  48    3.1422   491.8    5.891      44.219
2018    6        1     0  55    3.1420   492.1    5.884      44.260
2018    6        1     1   2    3.1418   492.3    5.876      44.299
2018    6        1     1  10    3.1415   492.6    5.869      44.336
2018    6        1     1  17    3.1411   492.9    5.861      44.371
2018    6        1     1  24    3.1407   493.2    5.852      44.404
2018    6        1     1  31    3.1401   493.5    5.844      44.435
2018    6        1     1  39    3.1395   493.8    5.835      44.464
2018    6        1     1  46    3.1388   494.1    5.825      44.491
2018    6        1     1  53    3.1380   494.4    5.816      44.515
2018    6        1     2   1    3.1372   494.7    5.806      44.537
2018    6        1     2   8    3.1363   494.9    5.796      44.558
2018    6        1     2  15    3.1354   495.2    5.786      44.576
2018    6        1     2  22    3.1345   495.5    5.776      44.593
2018    6        1     2  30    3.1334   495.8    5.766      44.608
2018    6        1     2  37    3.1324   496.0    5.755      44.622
2018    6        1     2  44    3.1313   496.3    5.745      44.635
2018    6        1     2  51    3.1301   496.6    5.734      44.647
2018    6        1     2  59    3.1290   496.8    5.724      44.658
2018    6        1     3   6    3.1278   497.1    5.713      44.668
2018    6        1     3  13    3.1265   497.3    5.702      44.677
2018    6        1     3  20    3.1253   497.6    5.691      44.685
2018    6        1     3  28    3.1240   497.8    5.680      44.692
2018    6        1     3  35    3.1227   498.1    5.669      44.698
2018    6        1     3  42    3.1214   498.3    5.658      44.702
2018    6        1     3  49    3.1200   498.6    5.647      44.705
2018    6        1     3  57    3.1187   498.8    5.636      44.707
2018    6        1     4   4    3.1173   499.1    5.625      44.707
2018    6        1     4  11    3.1159   499.3    5.614      44.709
2018    6        1     4  18    3.1144   499.6    5.603      44.710
2018    6        1     4  26    3.1129   499.9    5.591      44.710
2018    6        1     4  33    3.1113   500.1    5.580      44.709
2018    6        1     4  40    3.1097   500.4    5.568      44.707
2018    6        1     4  47    3.1081   500.6    5.557      44.703
2018    6        1     4  55    3.1065   500.9    5.546      44.696
2018    6        1     5   2    3.1050   501.1    5.535      44.690
2018    6        1     5   9    3.1034   501.3    5.525      44.682
2018    6        1     5  16    3.1019   501.5    5.515      44.675
2018    6        1     5  24    3.1004   501.7    5.505      44.669
2018    6        1     5  31    3.0990   501.9    5.496      44.665
2018    6        1     5  38    3.0976   502.1    5.486      44.663
2018    6        1     5  45    3.0962   502.3    5.478      44.665
2018    6        1     5  53    3.0949   502.5    5.469      44.672
2018    6        1     6   0    3.0936   502.8    5.461      44.682
2018    6        1     6   7    3.0923   503.0    5.453      44.694
2018    6        1     6  14    3.0910   503.3    5.445      44.709
2018    6        1     6  22    3.0897   503.5    5.437      44.724
2018    6        1     6  29    3.0882   503.8    5.428      44.738
2018    6        1     6  36    3.0868   504.1    5.419      44.752
2018    6        1     6  43    3.0852   504.3    5.410      44.764
2018    6        1     6  51    3.0836   504.6    5.401      44.774
2018    6        1     6  58    3.0819   504.8    5.392      44.784
2018    6        1     7   5    3.0801   505.0    5.382      44.792
2018    6        1     7  12    3.0782   505.2    5.373      44.800
2018    6        1     7  20    3.0763   505.5    5.363      44.807
2018    6        1     7  27    3.0743   505.7    5.353      44.813
2018    6        1     7  34    3.0722   505.9    5.343      44.818
2018    6        1     7  41    3.0700   506.2    5.333      44.822
2018    6        1     7  49    3.0678   506.4    5.323      44.825
2018    6        1     7  56    3.0655   506.6    5.312      44.827
2018    6        1     8   3    3.0632   506.8    5.302      44.828
2018    6        1     8  11    3.0608   507.0    5.292      44.827
2018    6        1     8  18    3.0584   507.3    5.281      44.826
2018    6        1     8  25    3.0560   507.5    5.270      44.824
2018    6        1     8  32    3.0535   507.7    5.260      44.821
2018    6        1     8  40    3.0509   507.9    5.249      44.817
2018    6        1     8  47    3.0484   508.1    5.238      44.812
2018    6        1     8  54    3.0457   508.4    5.227      44.806
2018    6        1     9   1    3.0431   508.6    5.215      44.798
2018    6        1     9   9    3.0404   508.8    5.204      44.790
2018    6        1     9  16    3.0377   509.1    5.193      44.779
2018    6        1     9  23    3.0349   509.3    5.181      44.767
2018    6        1     9  30    3.0321   509.5    5.170      44.754
2018    6        1     9  38    3.0293   509.7    5.159      44.739
2018    6        1     9  45    3.0264   509.9    5.147      44.722
2018    6        1     9  52    3.0236   510.1    5.136      44.704
2018    6        1     9  59    3.0207   510.3    5.125      44.686
2018    6        1    10   7    3.0178   510.4    5.113      44.666
2018    6        1    10  14    3.0149   510.6    5.102      44.646
2018    6        1    10  21    3.0119   510.8    5.091      44.625
2018    6        1    10  28    3.0090   510.9    5.080      44.603
2018    6        1    10  36    3.0061   511.1    5.069      44.581
2018    6        1    10  43    3.0032   511.3    5.059      44.558
2018    6        1    10  50    3.0003   511.4    5.048      44.534
2018    6        1    10  57    2.9974   511.5    5.038      44.510
2018    6        1    11   5    2.9945   511.7    5.027      44.485
2018    6        1    11  12    2.9916   511.8    5.017      44.460
2018    6        1    11  19    2.9886   512.0    5.008      44.435
2018    6        1    11  26    2.9857   512.1    4.998      44.411
2018    6        1    11  34    2.9827   512.3    4.988      44.389
2018    6        1    11  41    2.9797   512.4    4.978      44.366
2018    6        1    11  48    2.9767   512.6    4.969      44.343
2018    6        1    11  55    2.9737   512.7    4.959      44.320
2018    6        1    12   3    2.9707   512.8    4.950      44.294
2018    6        1    12  10    2.9677   512.9    4.941      44.267
2018    6        1    12  17    2.9648   513.0    4.932      44.239
2018    6        1    12  24    2.9620   513.1    4.924      44.211
2018    6        1    12  32    2.9592   513.2    4.916      44.182
2018    6        1    12  39    2.9565   513.3    4.908      44.154
2018    6        1    12  46    2.9539   513.3    4.900      44.128
2018    6        1    12  53    2.9513   513.4    4.892      44.105
2018    6        1    13   1    2.9487   513.5    4.885      44.085
2018    6        1    13   8    2.9462   513.6    4.878      44.070
2018    6        1    13  15    2.9438   513.7    4.871      44.059
2018    6        1    13  22    2.9414   513.8    4.864      44.050
2018    6        1    13  30    2.9389   514.0    4.857      44.042
2018    6        1    13  37    2.9364   514.1    4.850      44.033
2018    6        1    13  44    2.9338   514.3    4.842      44.022
2018    6        1    13  51    2.9312   514.4    4.835      44.008
2018    6        1    13  59    2.9285   514.5    4.827      43.990
2018    6        1    14   6    2.9258   514.7    4.819      43.970
2018    6        1    14  13    2.9230   514.8    4.811      43.948
2018    6        1    14  21    2.9202   514.9    4.803      43.924
2018    6        1    14  28    2.9173   515.0    4.795      43.899
2018    6        1    14  35    2.9144   515.1    4.786      43.873
2018    6        1    14  42    2.9114   515.2    4.778      43.847
2018    6        1    14  50    2.9084   515.4    4.769      43.820
2018    6        1    14  57    2.9054   515.5    4.760      43.792
2018    6        1    15   4    2.9024   515.6    4.752      43.763
2018    6        1    15  11    2.8993   515.7    4.744      43.733
2018    6        1    15  19    2.8962   515.8    4.735      43.703
2018    6        1    15  26    2.8931   515.9    4.727      43.673
2018    6        1    15  33    2.8901   515.9    4.719      43.642
2018    6        1    15  40    2.8871   516.0    4.710      43.611
2018    6        1    15  48    2.8840   516.1    4.702      43.581
2018    6        1    15  55    2.8810   516.2    4.694      43.551
2018    6        1    16   2    2.8780   516.3    4.686      43.522
2018    6        1    16   9    2.8750   516.4    4.679      43.493
2018    6        1    16  17    2.8721   516.5    4.671      43.465
2018    6        1    16  24    2.8691   516.6    4.664      43.437
2018    6        1    16  31    2.8662   516.7    4.656      43.410
2018    6        1    16  38    2.8633   516.7    4.649      43.382
2018    6        1    16  46    2.8604   516.8    4.642      43.355
2018    6        1    16  53    2.8575   516.9    4.635      43.329
2018    6        1    17   0    2.8547   517.0    4.629      43.302
2018    6        1    17   7    2.8519   517.1    4.622      43.276
2018    6        1    17  15    2.8491   517.1    4.616      43.250
2018    6        1    17  22    2.8464   517.2    4.610      43.225
2018    6        1    17  29    2.8437   517.2    4.604      43.200
2018    6        1    17  36    2.8411   517.3    4.599      43.175
2018    6        1    17  44    2.8385   517.3    4.594      43.152
2018    6        1    17  51    2.8359   517.4    4.589      43.130
2018    6        1    17  58    2.8334   517.4    4.584      43.108
2018    6        1    18   5    2.8310   517.5    4.580      43.087
2018    6        1    18  13    2.8285   517.5    4.576      43.068
2018    6        1    18  20    2.8262   517.5    4.572      43.050
2018    6        1    18  27    2.8238   517.5    4.569      43.033
2018    6        1    18  34    2.8215   517.5    4.565      43.017
2018    6        1    18  42    2.8191   517.6    4.562      43.001
2018    6        1    18  49    2.8168   517.6    4.559      42.986
2018    6        1    18  56    2.8146   517.6    4.556      42.972
2018    6        1    19   3    2.8123   517.6    4.554      42.959
2018    6        1    19  11    2.8100   517.6    4.551      42.946
2018    6        1    19  18    2.8079   517.6    4.549      42.933
2018    6        1    19  25    2.8057   517.6    4.546      42.920
2018    6        1    19  32    2.8035   517.6    4.544      42.907
2018    6        1    19  40    2.8014   517.6    4.541      42.893
2018    6        1    19  47    2.7993   517.6    4.538      42.879
2018    6        1    19  54    2.7972   517.6    4.536      42.863
2018    6        1    20   1    2.7952   517.6    4.533      42.847
2018    6        1    20   9    2.7931   517.6    4.530      42.831
2018    6        1    20  16    2.7911   517.6    4.527      42.814
2018    6        1    20  23    2.7891   517.6    4.524      42.797
2018    6        1    20  31    2.7870   517.6    4.521      42.779
2018    6        1    20  38    2.7850   517.6    4.518      42.760
2018    6        1    20  45    2.7830   517.6    4.514      42.742
2018    6        1    20  52    2.7809   517.6    4.511      42.722
2018    6        1    21   0    2.7789   517.6    4.507      42.702
2018    6        1    21   7    2.7769   517.6    4.504      42.682
2018    6        1    21  14    2.7748   517.6    4.500      42.660
2018    6        1    21  21    2.7727   517.6    4.496      42.639
2018    6        1    21  29    2.7707   517.6    4.493      42.616
2018    6        1    21  36    2.7686   517.6    4.489      42.593
2018    6        1    21  43    2.7665   517.6    4.485      42.570
2018    6        1    21  50    2.7645   517.6    4.481      42.547
2018    6        1    21  58    2.7624   517.6    4.477      42.523
2018    6        1    22   5    2.7603   517.6    4.473      42.498
2018    6        1    22  12    2.7583   517.6    4.469      42.473
2018    6        1    22  19    2.7562   517.6    4.465      42.448
2018    6        1    22  27    2.7542   517.6    4.461      42.423
2018    6        1    22  34    2.7521   517.6    4.456      42.397
2018    6        1    22  41    2.7501   517.6    4.452      42.371
2018    6        1    22  48    2.7481   517.6    4.448      42.346
2018    6        1    22  56    2.7460   517.6    4.444      42.319
2018    6        1    23   3    2.7440   517.6    4.440      42.294
2018    6        1    23  10    2.7420   517.6    4.436      42.268
2018    6        1    23  17    2.7401   517.6    4.432      42.242
2018    6        1    23  25    2.7381   517.6    4.429      42.217
2018    6        1    23  32    2.7362   517.6    4.425      42.193
2018    6        1    23  39    2.7343   517.5    4.422      42.169
2018    6        1    23  46    2.7324   517.5    4.418      42.146
2018    6        1    23  54    2.7306   517.5    4.415      42.124
2018    6        2     0   1    2.7287   517.5    4.412      42.103
2018    6        2     0   8    2.7270   517.5    4.410      42.083
2018    6        2     0  15    2.7253   517.4    4.407      42.065
2018    6        2     0  23    2.7236   517.4    4.405      42.049
2018    6        2     0  30    2.7220   517.4    4.403      42.033
2018    6        2     0  37    2.7205   517.4    4.402      42.020
2018    6        2     0  44    2.7189   517.3    4.401      42.008
2018    6        2     0  52    2.7175   517.3    4.400      41.998
2018    6        2     0  59    2.7161   517.3    4.399      41.989
2018    6        2     1   6    2.7148   517.3    4.398      41.982
2018    6        2     1  13    2.7135   517.2    4.398      41.976
2018    6        2     1  21    2.7122   517.2    4.398      41.971
2018    6        2     1  28    2.7110   517.2    4.398      41.967
2018    6        2     1  35    2.7098   517.2    4.399      41.964
2018    6        2     1  42    2.7086   517.1    4.399      41.961
2018    6        2     1  50    2.7074   517.1    4.399      41.958
2018    6        2     1  57    2.7061   517.1    4.399      41.953
2018    6        2     2   4    2.7049   517.0    4.399      41.948
2018    6        2     2  12    2.7036   517.0    4.398      41.941
2018    6        2     2  19    2.7024   516.9    4.398      41.933
2018    6        2     2  26    2.7011   516.9    4.397      41.923
2018    6        2     2  33    2.6998   516.8    4.396      41.913
2018    6        2     2  41    2.6985   516.8    4.396      41.901
2018    6        2     2  48    2.6972   516.8    4.394      41.889
2018    6        2     2  55    2.6958   516.7    4.393      41.875
2018    6        2     3   2    2.6945   516.7    4.392      41.861
2018    6        2     3  10    2.6931   516.6    4.391      41.845
2018    6        2     3  17    2.6917   516.6    4.389      41.829
2018    6        2     3  24    2.6904   516.5    4.388      41.812
2018    6        2     3  31    2.6890   516.5    4.386      41.794
2018    6        2     3  39    2.6876   516.5    4.384      41.775
2018    6        2     3  46    2.6862   516.4    4.382      41.756
2018    6        2     3  53    2.6848   516.4    4.380      41.736
2018    6        2     4   0    2.6834   516.3    4.379      41.716
2018    6        2     4   8    2.6820   516.3    4.377      41.695
2018    6        2     4  15    2.6806   516.2    4.375      41.674
2018    6        2     4  22    2.6792   516.2    4.372      41.652
2018    6        2     4  29    2.6778   516.1    4.370      41.630
2018    6        2     4  37    2.6764   516.1    4.368      41.607
2018    6        2     4  44    2.6749   516.0    4.366      41.584
2018    6        2     4  51    2.6735   516.0    4.364      41.561
2018    6        2     4  58    2.6721   515.9    4.361      41.537
2018    6        2     5   6    2.6707   515.9    4.359      41.513
2018    6        2     5  13    2.6693   515.8    4.357      41.489
2018    6        2     5  20    2.6678   515.8    4.354      41.464
2018    6        2     5  27    2.6664   515.7    4.352      41.438
2018    6        2     5  35    2.6650   515.7    4.350      41.413
2018    6        2     5  42    2.6636   515.6    4.347      41.387
2018    6        2     5  49    2.6622   515.6    4.345      41.361
2018    6        2     5  56    2.6608   515.5    4.342      41.335
2018    6        2     6   4    2.6594   515.5    4.340      41.309
2018    6        2     6  11    2.6580   515.4    4.338      41.282
2018    6        2     6  18    2.6566   515.4    4.335      41.256
2018    6        2     6  25    2.6552   515.3    4.333      41.229
2018    6        2     6  33    2.6538   515.2    4.331      41.203
2018    6        2     6  40    2.6525   515.2    4.329      41.177
2018    6        2     6  47    2.6511   515.1    4.326      41.152
2018    6        2     6  54    2.6498   515.0    4.324      41.127
2018    6        2     7   2    2.6485   515.0    4.323      41.102
2018    6        2     7   9    2.6473   514.9    4.321      41.079
2018    6        2     7  16    2.6460   514.8    4.319      41.056
2018    6        2     7  23    2.6448   514.8    4.318      41.035
2018    6        2     7  31    2.6436   514.7    4.317      41.014
2018    6        2     7  38    2.6425   514.6    4.316      40.995
2018    6        2     7  45    2.6414   514.5    4.315      40.977
2018    6        2     7  52    2.6403   514.5    4.314      40.960
2018    6        2     8   0    2.6393   514.4    4.314      40.945
2018    6        2     8   7    2.6383   514.3    4.314      40.931
2018    6        2     8  14    2.6374   514.2    4.314      40.919
2018    6        2     8  22    2.6365   514.2    4.314      40.907
2018    6        2     8  29    2.6356   514.1    4.315      40.897
2018    6        2     8  36    2.6348   514.0    4.316      40.888
2018    6        2     8  43    2.6340   513.9    4.317      40.880
2018    6        2     8  51    2.6332   513.8    4.318      40.873
2018    6        2     8  58    2.6325   513.8    4.319      40.866
2018    6        2     9   5    2.6317   513.7    4.320      40.859
2018    6        2     9  12    2.6310   513.6    4.321      40.852
2018    6        2     9  20    2.6302   513.5    4.322      40.844
2018    6        2     9  27    2.6295   513.4    4.322      40.835
2018    6        2     9  34    2.6287   513.4    4.323      40.826
2018    6        2     9  41    2.6279   513.3    4.324      40.817
2018    6        2     9  49    2.6271   513.2    4.325      40.807
2018    6        2     9  56    2.6264   513.1    4.325      40.797
2018    6        2    10   3    2.6256   513.0    4.326      40.785
2018    6        2    10  10    2.6248   512.9    4.326      40.774
2018    6        2    10  18    2.6240   512.8    4.326      40.762
2018    6        2    10  25    2.6232   512.8    4.327      40.749
2018    6        2    10  32    2.6223   512.7    4.327      40.736
2018    6        2    10  39    2.6215   512.6    4.327      40.722
2018    6        2    10  47    2.6207   512.5    4.327      40.708
2018    6        2    10  54    2.6199   512.4    4.327      40.693
2018    6        2    11   1    2.6190   512.3    4.327      40.678
2018    6        2    11   8    2.6181   512.2    4.327      40.662
2018    6        2    11  16    2.6173   512.1    4.327      40.646
2018    6        2    11  23    2.6164   512.1    4.327      40.630
2018    6        2    11  30    2.6156   512.0    4.327      40.613
2018    6        2    11  37    2.6147   511.9    4.327      40.595
2018    6        2    11  45    2.6138   511.8    4.327      40.578
2018    6        2    11  52    2.6129   511.7    4.326      40.560
2018    6        2    11  59    2.6120   511.6    4.326      40.541
2018    6        2    12   6    2.6111   511.5    4.326      40.523
2018    6        2    12  14    2.6102   511.4    4.325      40.504
2018    6        2    12  21    2.6093   511.3    4.325      40.484
2018    6        2    12  28    2.6084   511.3    4.324      40.465
2018    6        2    12  35    2.6075   511.2    4.324      40.445
2018    6        2    12  43    2.6066   511.1    4.324      40.424
2018    6        2    12  50    2.6057   511.0    4.323      40.404
2018    6        2    12  57    2.6048   510.9    4.323      40.383
2018    6        2    13   4    2.6039   510.8    4.322      40.362
2018    6        2    13  12    2.6030   510.7    4.322      40.341
2018    6        2    13  19    2.6021   510.6    4.321      40.319
2018    6        2    13  26    2.6012   510.6    4.320      40.298
2018    6        2    13  33    2.6003   510.5    4.320      40.276
2018    6        2    13  41    2.5994   510.4    4.319      40.254
2018    6        2    13  48    2.5985   510.3    4.319      40.231
2018    6        2    13  55    2.5976   510.2    4.318      40.209
2018    6        2    14   3    2.5967   510.1    4.317      40.186
2018    6        2    14  10    2.5958   510.0    4.317      40.163
2018    6        2    14  17    2.5949   509.9    4.316      40.140
2018    6        2    14  24    2.5941   509.8    4.316      40.117
2018    6        2    14  32    2.5932   509.7    4.315      40.093
2018    6        2    14  39    2.5923   509.6    4.314      40.070
2018    6        2    14  46    2.5915   509.5    4.314      40.047
2018    6        2    14  53    2.5907   509.4    4.314      40.024
2018    6        2    15   1    2.5899   509.3    4.313      40.001
2018    6        2    15   8    2.5891   509.2    4.313      39.979
2018    6        2    15  15    2.5883   509.1    4.313      39.957
2018    6        2    15  22    2.5876   509.0    4.313      39.935
2018    6        2    15  30    2.5869   508.8    4.313      39.913
2018    6        2    15  37    2.5861   508.7    4.313      39.892
2018    6        2    15  44    2.5855   508.6    4.313      39.872
2018    6        2    15  51    2.5848   508.5    4.313      39.852
2018    6        2    15  59    2.5842   508.4    4.314      39.832
2018    6        2    16   6    2.5836   508.3    4.314      39.814
2018    6        2    16  13    2.5831   508.2    4.315      39.796
2018    6        2    16  20    2.5825   508.0    4.316      39.778
2018    6        2    16  28    2.5820   507.9    4.317      39.761
2018    6        2    16  35    2.5815   507.8    4.318      39.745
2018    6        2    16  42    2.5811   507.7    4.319      39.730
2018    6        2    16  49    2.5806   507.6    4.320      39.715
2018    6        2    16  57    2.5802   507.5    4.321      39.700
2018    6        2    17   4    2.5798   507.3    4.323      39.686
2018    6        2    17  11    2.5794   507.2    4.324      39.672
2018    6        2    17  18    2.5790   507.1    4.326      39.658
2018    6        2    17  26    2.5786   507.0    4.327      39.645
2018    6        2    17  33    2.5783   506.8    4.329      39.632
2018    6        2    17  40    2.5779   506.7    4.330      39.618
2018    6        2    17  47    2.5775   506.6    4.332      39.605
2018    6        2    17  55    2.5771   506.5    4.333      39.592
2018    6        2    18   2    2.5767   506.4    4.335      39.578
2018    6        2    18   9    2.5763   506.2    4.336      39.564
2018    6        2    18  16    2.5760   506.1    4.338      39.550
2018    6        2    18  24    2.5756   506.0    4.339      39.536
2018    6        2    18  31    2.5752   505.9    4.341      39.522
2018    6        2    18  38    2.5748   505.8    4.342      39.507
2018    6        2    18  45    2.5744   505.6    4.343      39.492
2018    6        2    18  53    2.5739   505.5    4.345      39.476
2018    6        2    19   0    2.5736   505.4    4.346      39.461
2018    6        2    19   7    2.5731   505.3    4.347      39.445
2018    6        2    19  14    2.5727   505.1    4.349      39.429
2018    6        2    19  22    2.5723   505.0    4.350      39.413
2018    6        2    19  29    2.5719   504.9    4.351      39.396
2018    6        2    19  36    2.5715   504.8    4.352      39.380
2018    6        2    19  43    2.5711   504.6    4.354      39.363
2018    6        2    19  51    2.5707   504.5    4.355      39.346
2018    6        2    19  58    2.5703   504.4    4.356      39.329
2018    6        2    20   5    2.5699   504.3    4.357      39.312
2018    6        2    20  12    2.5695   504.1    4.358      39.295
2018    6        2    20  20    2.5691   504.0    4.360      39.278
2018    6        2    20  27    2.5688   503.9    4.361      39.260
2018    6        2    20  34    2.5684   503.7    4.362      39.243
2018    6        2    20  42    2.5680   503.6    4.364      39.226
2018    6        2    20  49    2.5677   503.5    4.365      39.209
2018    6        2    20  56    2.5674   503.4    4.366      39.193
2018    6        2    21   3    2.5670   503.2    4.368      39.176
2018    6        2    21  11    2.5667   503.1    4.369      39.159
2018    6        2    21  18    2.5664   503.0    4.371      39.142
2018    6        2    21  25    2.5661   502.8    4.373      39.126
2018    6        2    21  32    2.5659   502.7    4.374      39.109
2018    6        2    21  40    2.5656   502.6    4.376      39.093
2018    6        2    21  47    2.5654   502.4    4.378      39.077
2018    6        2    21  54    2.5651   502.3    4.380      39.060
2018    6        2    22   1    2.5649   502.1    4.381      39.044
2018    6        2    22   9    2.5647   502.0    4.383      39.028
2018    6        2    22  16    2.5645   501.9    4.385      39.012
2018    6        2    22  23    2.5644   501.7    4.387      38.996
2018    6        2    22  30    2.5642   501.6    4.390      38.981
2018    6        2    22  38    2.5641   501.4    4.392      38.965
2018    6        2    22  45    2.5640   501.3    4.394      38.950
2018    6        2    22  52    2.5639   501.2    4.396      38.935
2018    6        2    22  59    2.5638   501.0    4.399      38.921
2018    6        2    23   7    2.5638   500.9    4.401      38.906
2018    6        2    23  14    2.5637   500.7    4.404      38.892
2018    6        2    23  21    2.5637   500.6    4.407      38.878
2018    6        2    23  28    2.5637   500.4    4.409      38.865
2018    6        2    23  36    2.5638   500.3    4.412      38.852
2018    6        2    23  43    2.5638   500.1    4.415      38.839
2018    6        2    23  50    2.5639   500.0    4.418      38.827
2018    6        2    23  57    2.5640   499.8    4.421      38.815
2018    6        3     0   5    2.5641   499.7    4.424      38.804
2018    6        3     0  12    2.5642   499.6    4.427      38.792
2018    6        3     0  19    2.5643   499.4    4.431      38.782
2018    6        3     0  26    2.5645   499.3    4.434      38.771
2018    6        3     0  34    2.5647   499.1    4.437      38.761
2018    6        3     0  41    2.5648   499.0    4.441      38.751
2018    6        3     0  48    2.5650   498.9    4.444      38.741
2018    6        3     0  55    2.5652   498.7    4.448      38.731
2018    6        3     1   3    2.5654   498.6    4.451      38.721
2018    6        3     1  10    2.5657   498.4    4.454      38.711
2018    6        3     1  17    2.5659   498.3    4.458      38.701
2018    6        3     1  24    2.5661   498.2    4.461      38.691
2018    6        3     1  32    2.5663   498.0    4.465      38.681
2018    6        3     1  39    2.5665   497.9    4.468      38.672
2018    6        3     1  46    2.5667   497.8    4.472      38.662
2018    6        3     1  53    2.5670   497.6    4.475      38.652
2018    6        3     2   1    2.5672   497.5    4.478      38.642
2018    6        3     2   8    2.5675   497.4    4.482      38.632
2018    6        3     2  15    2.5677   497.2    4.485      38.621
2018    6        3     2  23    2.5680   497.1    4.489      38.611
2018    6        3     2  30    2.5682   497.0    4.492      38.601
2018    6        3     2  37    2.5685   496.8    4.495      38.591
2018    6        3     2  44    2.5688   496.7    4.498      38.581
2018    6        3     2  52    2.5691   496.6    4.502      38.571
2018    6        3     2  59    2.5694   496.4    4.505      38.561
2018    6        3     3   6    2.5697   496.3    4.508      38.551
2018    6        3     3  13    2.5700   496.2    4.512      38.542
2018    6        3     3  21    2.5703   496.0    4.515      38.532
2018    6        3     3  28    2.5707   495.9    4.518      38.523
2018    6        3     3  35    2.5710   495.8    4.522      38.514
2018    6        3     3  42    2.5714   495.6    4.525      38.505
2018    6        3     3  50    2.5718   495.5    4.528      38.497
2018    6        3     3  57    2.5722   495.4    4.532      38.489
2018    6        3     4   4    2.5727   495.2    4.535      38.481
2018    6        3     4  11    2.5731   495.1    4.539      38.473
2018    6        3     4  19    2.5736   495.0    4.543      38.466
2018    6        3     4  26    2.5741   494.8    4.546      38.459
2018    6        3     4  33    2.5746   494.7    4.550      38.452
2018    6        3     4  40    2.5751   494.6    4.554      38.446
2018    6        3     4  48    2.5757   494.4    4.558      38.440
2018    6        3     4  55    2.5763   494.3    4.562      38.434
2018    6        3     5   2    2.5769   494.2    4.566      38.428
2018    6        3     5   9    2.5775   494.0    4.570      38.423
2018    6        3     5  17    2.5781   493.9    4.574      38.417
2018    6        3     5  24    2.5788   493.8    4.579      38.412
2018    6        3     5  31    2.5795   493.6    4.583      38.407
2018    6        3     5  38    2.5802   493.5    4.588      38.402
2018    6        3     5  46    2.5810   493.4    4.592      38.397
2018    6        3     5  53    2.5817   493.2    4.597      38.393
2018    6        3     6   0    2.5825   493.1    4.602      38.388
2018    6        3     6   7    2.5833   493.0    4.606      38.383
2018    6        3     6  15    2.5841   492.8    4.611      38.378
2018    6        3     6  22    2.5850   492.7    4.616      38.373
2018    6        3     6  29    2.5858   492.6    4.622      38.368
2018    6        3     6  36    2.5867   492.4    4.627      38.364
2018    6        3     6  44    2.5876   492.3    4.632      38.360
2018    6        3     6  51    2.5884   492.2    4.637      38.356
2018    6        3     6  58    2.5893   492.1    4.642      38.353
2018    6        3     7   5    2.5902   491.9    4.648      38.351
2018    6        3     7  13    2.5911   491.8    4.653      38.350
2018    6        3     7  20    2.5919   491.7    4.658      38.349
2018    6        3     7  27    2.5928   491.6    4.663      38.347
2018    6        3     7  34    2.5937   491.4    4.668      38.346
2018    6        3     7  42    2.5946   491.3    4.673      38.345
2018    6        3     7  49    2.5955   491.2    4.678      38.343
2018    6        3     7  56    2.5964   491.1    4.682      38.342
2018    6        3     8   3    2.5973   491.0    4.687      38.340
2018    6        3     8  11    2.5982   490.8    4.692      38.338
2018    6        3     8  18    2.5991   490.7    4.696      38.336
2018    6        3     8  25    2.6000   490.6    4.701      38.333
2018    6        3     8  33    2.6009   490.5    4.705      38.331
2018    6        3     8  40    2.6018   490.4    4.710      38.328
2018    6        3     8  47    2.6027   490.3    4.714      38.326
2018    6        3     8  54    2.6036   490.2    4.719      38.323
2018    6        3     9   2    2.6045   490.0    4.723      38.321
2018    6        3     9   9    2.6054   489.9    4.727      38.318
2018    6        3     9  16    2.6064   489.8    4.731      38.315
2018    6        3     9  23    2.6073   489.7    4.736      38.312
2018    6        3     9  31    2.6082   489.6    4.740      38.310
2018    6        3     9  38    2.6092   489.5    4.744      38.307
2018    6        3     9  45    2.6102   489.4    4.748      38.304
2018    6        3     9  52    2.6111   489.3    4.752      38.302
2018    6        3    10   0    2.6121   489.2    4.756      38.299
2018    6        3    10   7    2.6131   489.1    4.761      38.297
2018    6        3    10  14    2.6141   489.0    4.765      38.294
2018    6        3    10  21    2.6151   488.9    4.769      38.292
2018    6        3    10  29    2.6161   488.8    4.773      38.290
2018    6        3    10  36    2.6171   488.7    4.777      38.288
2018    6        3    10  43    2.6182   488.6    4.781      38.286
2018    6        3    10  50    2.6192   488.5    4.785      38.284
2018    6        3    10  58    2.6203   488.4    4.789      38.282
2018    6        3    11   5    2.6214   488.3    4.793      38.281
2018    6        3    11  12    2.6225   488.2    4.797      38.279
2018    6        3    11  19    2.6235   488.1    4.801      38.278
2018    6        3    11  27    2.6247   488.1    4.805      38.277
2018    6        3    11  34    2.6258   488.0    4.810      38.276
2018    6        3    11  41    2.6269   487.9    4.814      38.275
2018    6        3    11  48    2.6280   487.8    4.818      38.275
2018    6        3    11  56    2.6292   487.7    4.822      38.274
2018    6        3    12   3    2.6303   487.6    4.826      38.274
2018    6        3    12  10    2.6315   487.5    4.830      38.273
2018    6        3    12  17    2.6327   487.4    4.835      38.273
2018    6        3    12  25    2.6338   487.3    4.839      38.273
2018    6        3    12  32    2.6350   487.2    4.844      38.273
2018    6        3    12  39    2.6363   487.2    4.848      38.273
2018    6        3    12  46    2.6375   487.1    4.853      38.273
2018    6        3    12  54    2.6387   487.0    4.857      38.273
2018    6        3    13   1    2.6400   486.9    4.862      38.273
2018    6        3    13   8    2.6413   486.8    4.867      38.274
2018    6        3    13  15    2.6426   486.7    4.872      38.274
2018    6        3    13  23    2.6439   486.6    4.877      38.274
2018    6        3    13  30    2.6452   486.5    4.882      38.274
2018    6        3    13  37    2.6466   486.5    4.888      38.274
2018    6        3    13  44    2.6479   486.4    4.893      38.274
2018    6        3    13  52    2.6493   486.3    4.899      38.275
2018    6        3    13  59    2.6507   486.2    4.905      38.276
2018    6        3    14   6    2.6521   486.1    4.911      38.278
2018    6        3    14  13    2.6535   486.0    4.917      38.281
2018    6        3    14  21    2.6549   485.9    4.923      38.285
2018    6        3    14  28    2.6564   485.9    4.929      38.290
2018    6        3    14  35    2.6577   485.8    4.935      38.297
2018    6        3    14  43    2.6591   485.7    4.941      38.305
2018    6        3    14  50    2.6605   485.6    4.947      38.313
2018    6        3    14  57    2.6618   485.5    4.953      38.323
2018    6        3    15   4    2.6632   485.5    4.958      38.333
2018    6        3    15  12    2.6645   485.4    4.964      38.343
2018    6        3    15  19    2.6658   485.3    4.969      38.353
2018    6        3    15  26    2.6671   485.2    4.974      38.362
2018    6        3    15  33    2.6684   485.2    4.979      38.371
2018    6        3    15  41    2.6697   485.1    4.984      38.380
2018    6        3    15  48    2.6709   485.0    4.989      38.388
2018    6        3    15  55    2.6722   485.0    4.994      38.396
2018    6        3    16   2    2.6734   484.9    4.998      38.404
2018    6        3    16  10    2.6747   484.8    5.003      38.410
2018    6        3    16  17    2.6759   484.8    5.007      38.417
2018    6        3    16  24    2.6771   484.7    5.011      38.423
2018    6        3    16  31    2.6784   484.6    5.016      38.429
2018    6        3    16  39    2.6796   484.6    5.020      38.435
2018    6        3    16  46    2.6808   484.5    5.024      38.440
2018    6        3    16  53    2.6820   484.5    5.028      38.445
2018    6        3    17   0    2.6832   484.4    5.032      38.450
2018    6        3    17   8    2.6844   484.3    5.036      38.455
2018    6        3    17  15    2.6856   484.3    5.040      38.459
2018    6        3    17  22    2.6868   484.2    5.043      38.464
2018    6        3    17  29    2.6880   484.2    5.047      38.468
2018    6        3    17  37    2.6893   484.1    5.051      38.472
2018    6        3    17  44    2.6905   484.1    5.055      38.476
2018    6        3    17  51    2.6917   484.0    5.058      38.480
2018    6        3    17  58    2.6930   483.9    5.062      38.484
2018    6        3    18   6    2.6942   483.9    5.066      38.488
2018    6        3    18  13    2.6955   483.8    5.070      38.492
2018    6        3    18  20    2.6967   483.8    5.073      38.496
2018    6        3    18  27    2.6980   483.7    5.077      38.501
2018    6        3    18  35    2.6993   483.7    5.081      38.505
2018    6        3    18  42    2.7006   483.6    5.085      38.510
2018    6        3    18  49    2.7018   483.6    5.089      38.515
2018    6        3    18  56    2.7031   483.5    5.093      38.520
2018    6        3    19   4    2.7044   483.5    5.096      38.527
2018    6        3    19  11    2.7056   483.5    5.100      38.533
2018    6        3    19  18    2.7069   483.4    5.104      38.540
2018    6        3    19  25    2.7081   483.4    5.107      38.546
2018    6        3    19  33    2.7094   483.3    5.111      38.553
2018    6        3    19  40    2.7106   483.3    5.114      38.559
2018    6        3    19  47    2.7118   483.2    5.118      38.564
2018    6        3    19  54    2.7131   483.2    5.121      38.569
2018    6        3    20   2    2.7143   483.2    5.125      38.575
2018    6        3    20   9    2.7155   483.1    5.128      38.580
2018    6        3    20  16    2.7168   483.1    5.132      38.584
2018    6        3    20  23    2.7180   483.0    5.135      38.589
2018    6        3    20  31    2.7192   483.0    5.139      38.593
2018    6        3    20  38    2.7205   483.0    5.142      38.597
2018    6        3    20  45    2.7217   482.9    5.146      38.601
2018    6        3    20  53    2.7230   482.9    5.150      38.605
2018    6        3    21   0    2.7243   482.8    5.154      38.609
2018    6        3    21   7    2.7255   482.8    5.158      38.613
2018    6        3    21  14    2.7268   482.8    5.162      38.617
2018    6        3    21  22    2.7281   482.7    5.166      38.622
2018    6        3    21  29    2.7295   482.7    5.170      38.626
2018    6        3    21  36    2.7308   482.6    5.175      38.631
2018    6        3    21  43    2.7321   482.6    5.180      38.636
2018    6        3    21  51    2.7334   482.6    5.184      38.642
2018    6        3    21  58    2.7348   482.5    5.189      38.650
2018    6        3    22   5    2.7361   482.5    5.194      38.659
2018    6        3    22  12    2.7374   482.4    5.199      38.668
2018    6        3    22  20    2.7387   482.4    5.204      38.678
2018    6        3    22  27    2.7400   482.4    5.209      38.688
2018    6        3    22  34    2.7413   482.3    5.213      38.699
2018    6        3    22  41    2.7425   482.3    5.218      38.709
2018    6        3    22  49    2.7438   482.3    5.222      38.721
2018    6        3    22  56    2.7450   482.2    5.227      38.732
2018    6        3    23   3    2.7462   482.2    5.231      38.743
2018    6        3    23  10    2.7474   482.2    5.235      38.755
2018    6        3    23  18    2.7486   482.2    5.239      38.765
2018    6        3    23  25    2.7497   482.1    5.243      38.776
2018    6        3    23  32    2.7509   482.1    5.246      38.786
2018    6        3    23  39    2.7520   482.1    5.250      38.795
2018    6        3    23  47    2.7532   482.0    5.254      38.805
2018    6        3    23  54    2.7543   482.0    5.257      38.814
2018    6        4     0   1    2.7554   482.0    5.261      38.823
2018    6        4     0   8    2.7565   482.0    5.264      38.832
2018    6        4     0  16    2.7576   481.9    5.267      38.840
2018    6        4     0  23    2.7587   481.9    5.271      38.849
2018    6        4     0  30    2.7598   481.9    5.274      38.858
2018    6        4     0  37    2.7609   481.9    5.277      38.866
2018    6        4     0  45    2.7620   481.8    5.280      38.875
2018    6        4     0  52    2.7631   481.8    5.283      38.884
2018    6        4     0  59    2.7642   481.8    5.286      38.893
2018    6        4     1   6    2.7653   481.8    5.289      38.902
2018    6        4     1  14    2.7664   481.8    5.293      38.911
2018    6        4     1  21    2.7675   481.7    5.296      38.920
2018    6        4     1  28    2.7686   481.7    5.299      38.930
2018    6        4     1  35    2.7697   481.7    5.302      38.939
2018    6        4     1  43    2.7708   481.7    5.305      38.949
2018    6        4     1  50    2.7719   481.7    5.308      38.959
2018    6        4     1  57    2.7730   481.7    5.311      38.969
2018    6        4     2   4    2.7741   481.7    5.314      38.980
2018    6        4     2  12    2.7752   481.6    5.317      38.992
2018    6        4     2  19    2.7763   481.6    5.320      39.003
2018    6        4     2  26    2.7774   481.6    5.323      39.016
2018    6        4     2  33    2.7785   481.6    5.326      39.028
2018    6        4     2  41    2.7796   481.6    5.329      39.041
2018    6        4     2  48    2.7807   481.6    5.332      39.054
2018    6        4     2  55    2.7818   481.6    5.335      39.066
2018    6        4     3   3    2.7828   481.6    5.337      39.079
2018    6        4     3  10    2.7839   481.6    5.340      39.091
2018    6        4     3  17    2.7849   481.6    5.342      39.103
2018    6        4     3  24    2.7859   481.6    5.344      39.114
2018    6        4     3  32    2.7870   481.6    5.347      39.124
2018    6        4     3  39    2.7880   481.6    5.349      39.134
2018    6        4     3  46    2.7890   481.6    5.351      39.143
2018    6        4     3  53    2.7900   481.6    5.353      39.152
2018    6        4     4   1    2.7910   481.6    5.355      39.160
2018    6        4     4   8    2.7920   481.6    5.357      39.169
2018    6        4     4  15    2.7930   481.6    5.359      39.176
2018    6        4     4  22    2.7940   481.6    5.361      39.184
2018    6        4     4  30    2.7950   481.6    5.364      39.191
2018    6        4     4  37    2.7960   481.6    5.366      39.198
2018    6        4     4  44    2.7971   481.6    5.368      39.205
2018    6        4     4  51    2.7981   481.6    5.370      39.212
2018    6        4     4  59    2.7991   481.6    5.373      39.219
2018    6        4     5   6    2.8002   481.6    5.375      39.225
2018    6        4     5  13    2.8013   481.6    5.378      39.232
2018    6        4     5  20    2.8024   481.6    5.381      39.239
2018    6        4     5  28    2.8035   481.6    5.384      39.247
2018    6        4     5  35    2.8045   481.6    5.387      39.255
2018    6        4     5  42    2.8057   481.6    5.390      39.264
2018    6        4     5  49    2.8068   481.6    5.393      39.275
2018    6        4     5  57    2.8079   481.6    5.396      39.286
2018    6        4     6   4    2.8090   481.6    5.399      39.299
2018    6        4     6  11    2.8101   481.7    5.401      39.313
2018    6        4     6  18    2.8112   481.7    5.404      39.328
2018    6        4     6  26    2.8123   481.7    5.407      39.343
2018    6        4     6  33    2.8133   481.7    5.409      39.358
2018    6        4     6  40    2.8143   481.7    5.411      39.373
2018    6        4     6  47    2.8153   481.8    5.413      39.387
2018    6        4     6  55    2.8163   481.8    5.415      39.400
2018    6        4     7   2    2.8172   481.8    5.417      39.414
2018    6        4     7   9    2.8182   481.8    5.419      39.426
2018    6        4     7  16    2.8191   481.8    5.420      39.439
2018    6        4     7  24    2.8200   481.9    5.422      39.451
2018    6        4     7  31    2.8209   481.9    5.423      39.463
2018    6        4     7  38    2.8218   481.9    5.425      39.474
2018    6        4     7  45    2.8227   481.9    5.426      39.485
2018    6        4     7  53    2.8236   482.0    5.428      39.496
2018    6        4     8   0    2.8244   482.0    5.429      39.506
2018    6        4     8   7    2.8253   482.0    5.430      39.517
2018    6        4     8  14    2.8261   482.0    5.431      39.527
2018    6        4     8  22    2.8270   482.0    5.433      39.537
2018    6        4     8  29    2.8278   482.1    5.434      39.547
2018    6        4     8  36    2.8286   482.1    5.435      39.557
2018    6        4     8  43    2.8295   482.1    5.436      39.567
2018    6        4     8  51    2.8303   482.1    5.437      39.577
2018    6        4     8  58    2.8311   482.2    5.439      39.587
2018    6        4     9   5    2.8319   482.2    5.440      39.597
2018    6        4     9  13    2.8327   482.2    5.441      39.608
2018    6        4     9  20    2.8335   482.2    5.442      39.618
2018    6        4     9  27    2.8343   482.2    5.444      39.629
2018    6        4     9  34    2.8351   482.3    5.445      39.640
2018    6        4     9  42    2.8358   482.3    5.446      39.652
2018    6        4     9  49    2.8366   482.3    5.447      39.664
2018    6        4     9  56    2.8373   482.4    5.449      39.676
2018    6        4    10   3    2.8380   482.4    5.450      39.689
2018    6        4    10  11    2.8387   482.4    5.451      39.701
2018    6        4    10  18    2.8393   482.5    5.452      39.713
2018    6        4    10  25    2.8399   482.5    5.454      39.725
2018    6        4    10  32    2.8405   482.5    5.455      39.737
2018    6        4    10  40    2.8411   482.6    5.456      39.749
2018    6        4    10  47    2.8416   482.6    5.457      39.760
2018    6        4    10  54    2.8421   482.6    5.457      39.770
2018    6        4    11   1    2.8425   482.7    5.458      39.781
2018    6        4    11   9    2.8430   482.7    5.459      39.791
2018    6        4    11  16    2.8434   482.7    5.460      39.801
2018    6        4    11  23    2.8438   482.8    5.461      39.810
2018    6        4    11  30    2.8442   482.8    5.462      39.820
2018    6        4    11  38    2.8445   482.8    5.462      39.830
2018    6        4    11  45    2.8448   482.9    5.463      39.840
2018    6        4    11  52    2.8451   482.9    5.463      39.850
2018    6        4    11  59    2.8454   483.0    5.464      39.860
2018    6        4    12   7    2.8456   483.0    5.464      39.869
2018    6        4    12  14    2.8458   483.0    5.464      39.878
2018    6        4    12  21    2.8460   483.1    5.465      39.886
2018    6        4    12  28    2.8462   483.1    5.465      39.895
2018    6        4    12  36    2.8464   483.1    5.465      39.903
2018    6        4    12  43    2.8465   483.2    5.465      39.910
2018    6        4    12  50    2.8466   483.2    5.465      39.918
2018    6        4    12  57    2.8467   483.3    5.464      39.926
2018    6        4    13   5    2.8467   483.3    5.464      39.933
2018    6        4    13  12    2.8468   483.4    5.464      39.940
2018    6        4    13  19    2.8468   483.4    5.463      39.947
2018    6        4    13  26    2.8468   483.4    5.463      39.953
2018    6        4    13  34    2.8468   483.5    5.462      39.959
2018    6        4    13  41    2.8468   483.5    5.462      39.964
2018    6        4    13  48    2.8468   483.6    5.461      39.970
2018    6        4    13  55    2.8468   483.6    5.460      39.975
2018    6        4    14   3    2.8467   483.7    5.459      39.979
2018    6        4    14  10    2.8466   483.7    5.458      39.983
2018    6        4    14  17    2.8466   483.7    5.457      39.987
2018    6        4    14  24    2.8465   483.8    5.456      39.991
2018    6        4    14  32    2.8464   483.8    5.455      39.994
2018    6        4    14  39    2.8464   483.9    5.454      39.997
2018    6        4    14  46    2.8463   483.9    5.453      40.000
2018    6        4    14  53    2.8462   484.0    5.451      40.002
2018    6        4    15   1    2.8462   484.0    5.450      40.005
2018    6        4    15   8    2.8461   484.0    5.449      40.007
2018    6        4    15  15    2.8460   484.1    5.448      40.009
2018    6        4    15  22    2.8459   484.1    5.446      40.011
2018    6        4    15  30    2.8458   484.2    5.445      40.014
2018    6        4    15  37    2.8458   484.2    5.443      40.016
2018    6        4    15  44    2.8457   484.3    5.442      40.018
2018    6        4    15  52    2.8456   484.3    5.440      40.020
2018    6        4    15  59    2.8455   484.3    5.438      40.021
2018    6        4    16   6    2.8454   484.4    5.437      40.022
2018    6        4    16  13    2.8453   484.4    5.435      40.023
2018    6        4    16  21    2.8452   484.5    5.433      40.023
2018    6        4    16  28    2.8451   484.5    5.431      40.023
2018    6        4    16  35    2.8450   484.6    5.429      40.023
2018    6        4    16  42    2.8448   484.6    5.427      40.023
2018    6        4    16  50    2.8447   484.6    5.425      40.022
2018    6        4    16  57    2.8445   484.7    5.423      40.021
2018    6        4    17   4    2.8444   484.7    5.421      40.020
2018    6        4    17  11    2.8442   484.8    5.418      40.018
2018    6        4    17  19    2.8440   484.8    5.416      40.016
2018    6        4    17  26    2.8438   484.9    5.414      40.014
2018    6        4    17  33    2.8435   484.9    5.411      40.011
2018    6        4    17  40    2.8433   485.0    5.409      40.008
2018    6        4    17  48    2.8430   485.0    5.406      40.005
2018    6        4    17  55    2.8428   485.1    5.403      40.001
2018    6        4    18   2    2.8425   485.1    5.401      39.998
2018    6        4    18   9    2.8422   485.1    5.398      39.994
2018    6        4    18  17    2.8419   485.2    5.395      39.989
2018    6        4    18  24    2.8416   485.2    5.392      39.985
2018    6        4    18  31    2.8412   485.3    5.389      39.980
2018    6        4    18  38    2.8409   485.3    5.387      39.975
2018    6        4    18  46    2.8405   485.4    5.384      39.970
2018    6        4    18  53    2.8402   485.4    5.381      39.964
2018    6        4    19   0    2.8398   485.4    5.378      39.959
2018    6        4    19   7    2.8394   485.5    5.375      39.953
2018    6        4    19  15    2.8390   485.5    5.372      39.947
2018    6        4    19  22    2.8386   485.6    5.369      39.941
2018    6        4    19  29    2.8382   485.6    5.366      39.935
2018    6        4    19  36    2.8377   485.6    5.363      39.929
2018    6        4    19  44    2.8373   485.7    5.360      39.923
2018    6        4    19  51    2.8368   485.7    5.357      39.917
2018    6        4    19  58    2.8364   485.7    5.354      39.911
2018    6        4    20   5    2.8359   485.8    5.351      39.906
2018    6        4    20  13    2.8355   485.8    5.349      39.900
2018    6        4    20  20    2.8350   485.9    5.346      39.895
2018    6        4    20  27    2.8345   485.9    5.343      39.890
2018    6        4    20  34    2.8340   485.9    5.341      39.885
2018    6        4    20  42    2.8336   486.0    5.339      39.880
2018    6        4    20  49    2.8331   486.0    5.336      39.875
2018    6        4    20  56    2.8326   486.0    5.334      39.871
2018    6        4    21   3    2.8321   486.1    5.332      39.867
2018    6        4    21  11    2.8317   486.1    5.330      39.863
2018    6        4    21  18    2.8312   486.1    5.328      39.859
2018    6        4    21  25    2.8308   486.1    5.326      39.856
2018    6        4    21  33    2.8303   486.2    5.324      39.853
2018    6        4    21  40    2.8299   486.2    5.322      39.849
2018    6        4    21  47    2.8294   486.2    5.320      39.846
2018    6        4    21  54    2.8290   486.3    5.319      39.843
2018    6        4    22   2    2.8285   486.3    5.317      39.840
2018    6        4    22   9    2.8281   486.3    5.315      39.838
2018    6        4    22  16    2.8277   486.4    5.313      39.835
2018    6        4    22  23    2.8272   486.4    5.312      39.832
2018    6        4    22  31    2.8268   486.4    5.310      39.829
2018    6        4    22  38    2.8264   486.5    5.308      39.826
2018    6        4    22  45    2.8259   486.5    5.306      39.822
2018    6        4    22  52    2.8254   486.5    5.304      39.818
2018    6        4    23   0    2.8249   486.6    5.302      39.814
2018    6        4    23   7    2.8245   486.6    5.300      39.810
2018    6        4    23  14    2.8239   486.6    5.298      39.805
2018    6        4    23  21    2.8234   486.6    5.296      39.800
2018    6        4    23  29    2.8229   486.7    5.294      39.794
2018    6        4    23  36    2.8224   486.7    5.291      39.788
2018    6        4    23  43    2.8218   486.7    5.289      39.782
2018    6        4    23  50    2.8212   486.8    5.287      39.775
2018    6        4    23  58    2.8206   486.8    5.284      39.769
2018    6        5     0   5    2.8200   486.8    5.282      39.761
2018    6        5     0  12    2.8194   486.9    5.280      39.754
2018    6        5     0  19    2.8188   486.9    5.277      39.746
2018    6        5     0  27    2.8182   486.9    5.275      39.739
2018    6        5     0  34    2.8175   486.9    5.272      39.730
2018    6        5     0  41    2.8168   487.0    5.270      39.722
2018    6        5     0  48    2.8162   487.0    5.267      39.714
2018    6        5     0  56    2.8155   487.0    5.264      39.705
2018    6        5     1   3    2.8148   487.0    5.262      39.696
2018    6        5     1  10    2.8141   487.1    5.259      39.687
2018    6        5     1  17    2.8133   487.1    5.257      39.679
2018    6        5     1  25    2.8126   487.1    5.254      39.670
2018    6        5     1  32    2.8119   487.1    5.252      39.661
2018    6        5     1  39    2.8111   487.2    5.249      39.652
2018    6        5     1  46    2.8104   487.2    5.247      39.643
2018    6        5     1  54    2.8096   487.2    5.245      39.635
2018    6        5     2   1    2.8088   487.2    5.242      39.626
2018    6        5     2   8    2.8081   487.3    5.240      39.617
2018    6        5     2  15    2.8073   487.3    5.238      39.609
2018    6        5     2  23    2.8065   487.3    5.236      39.601
2018    6        5     2  30    2.8057   487.3    5.233      39.593
2018    6        5     2  37    2.8049   487.4    5.231      39.586
2018    6        5     2  44    2.8041   487.4    5.229      39.579
2018    6        5     2  52    2.8032   487.4    5.227      39.572
2018    6        5     2  59    2.8024   487.4    5.226      39.565
2018    6        5     3   6    2.8016   487.4    5.224      39.559
2018    6        5     3  13    2.8008   487.4    5.222      39.552
2018    6        5     3  21    2.8000   487.5    5.221      39.547
2018    6        5     3  28    2.7992   487.5    5.219      39.541
2018    6        5     3  35    2.7984   487.5    5.218      39.536
2018    6        5     3  42    2.7975   487.5    5.217      39.532
2018    6        5     3  50    2.7967   487.5    5.215      39.528
2018    6        5     3  57    2.7959   487.6    5.214      39.524
2018    6        5     4   4    2.7951   487.6    5.213      39.520
2018    6        5     4  12    2.7943   487.6    5.212      39.517
2018    6        5     4  19    2.7936   487.6    5.211      39.514
2018    6        5     4  26    2.7928   487.6    5.211      39.511
2018    6        5     4  33    2.7920   487.7    5.210      39.508
2018    6        5     4  41    2.7912   487.7    5.209      39.506
2018    6        5     4  48    2.7905   487.7    5.209      39.504
2018    6        5     4  55    2.7898   487.7    5.208      39.502
2018    6        5     5   2    2.7890   487.7    5.208      39.500
2018    6        5     5  10    2.7883   487.8    5.208      39.498
2018    6        5     5  17    2.7875   487.8    5.207      39.497
2018    6        5     5  24    2.7868   487.8    5.207      39.496
2018    6        5     5  31    2.7861   487.8    5.206      39.495
2018    6        5     5  39    2.7854   487.8    5.206      39.494
2018    6        5     5  46    2.7847   487.9    5.206      39.493
2018    6        5     5  53    2.7840   487.9    5.205      39.492
2018    6        5     6   0    2.7833   487.9    5.205      39.491
2018    6        5     6   8    2.7826   487.9    5.204      39.491
2018    6        5     6  15    2.7820   487.9    5.204      39.490
2018    6        5     6  22    2.7813   488.0    5.203      39.490
2018    6        5     6  29    2.7806   488.0    5.203      39.489
2018    6        5     6  37    2.7799   488.0    5.202      39.489
2018    6        5     6  44    2.7792   488.0    5.202      39.488
2018    6        5     6  51    2.7784   488.0    5.201      39.487
2018    6        5     6  58    2.7778   488.1    5.200      39.486
2018    6        5     7   6    2.7771   488.1    5.199      39.484
2018    6        5     7  13    2.7763   488.1    5.199      39.483
2018    6        5     7  20    2.7757   488.1    5.198      39.481
2018    6        5     7  27    2.7750   488.2    5.197      39.479
2018    6        5     7  35    2.7743   488.2    5.196      39.477
2018    6        5     7  42    2.7736   488.2    5.195      39.475
2018    6        5     7  49    2.7729   488.2    5.194      39.472
2018    6        5     7  56    2.7722   488.2    5.193      39.470
2018    6        5     8   4    2.7715   488.3    5.192      39.467
2018    6        5     8  11    2.7708   488.3    5.191      39.464
2018    6        5     8  18    2.7701   488.3    5.190      39.461
2018    6        5     8  25    2.7694   488.3    5.189      39.457
2018    6        5     8  33    2.7688   488.4    5.188      39.454
2018    6        5     8  40    2.7681   488.4    5.187      39.450
2018    6        5     8  47    2.7674   488.4    5.186      39.446
2018    6        5     8  54    2.7667   488.4    5.185      39.442
2018    6        5     9   2    2.7661   488.4    5.183      39.438
2018    6        5     9   9    2.7654   488.5    5.182      39.434
2018    6        5     9  16    2.7647   488.5    5.181      39.429
2018    6        5     9  23    2.7640   488.5    5.180      39.425
2018    6        5     9  31    2.7633   488.5    5.179      39.420
2018    6        5     9  38    2.7626   488.5    5.177      39.416
2018    6        5     9  45    2.7620   488.6    5.176      39.411
2018    6        5     9  52    2.7613   488.6    5.175      39.407
2018    6        5    10   0    2.7606   488.6    5.174      39.402
2018    6        5    10   7    2.7599   488.6    5.173      39.398
2018    6        5    10  14    2.7592   488.6    5.171      39.393
2018    6        5    10  22    2.7585   488.7    5.170      39.389
2018    6        5    10  29    2.7578   488.7    5.169      39.384
2018    6        5    10  36    2.7571   488.7    5.168      39.380
2018    6        5    10  43    2.7564   488.7    5.167      39.376
2018    6        5    10  51    2.7557   488.7    5.166      39.372
2018    6        5    10  58    2.7550   488.7    5.164      39.368
2018    6        5    11   5    2.7543   488.8    5.163      39.364
2018    6        5    11  12    2.7536   488.8    5.162      39.360
2018    6        5    11  20    2.7529   488.8    5.161      39.356
2018    6        5    11  27    2.7522   488.8    5.160      39.353
2018    6        5    11  34    2.7515   488.8    5.160      39.350
2018    6        5    11  41    2.7509   488.9    5.159      39.346
2018    6        5    11  49    2.7502   488.9    5.158      39.343
2018    6        5    11  56    2.7495   488.9    5.157      39.341
2018    6        5    12   3    2.7488   488.9    5.156      39.338
2018    6        5    12  10    2.7481   488.9    5.155      39.335
2018    6        5    12  18    2.7475   488.9    5.155      39.333
2018    6        5    12  25    2.7468   489.0    5.154      39.331
2018    6        5    12  32    2.7461   489.0    5.153      39.328
2018    6        5    12  39    2.7454   489.0    5.153      39.327
2018    6        5    12  47    2.7447   489.0    5.152      39.325
2018    6        5    12  54    2.7441   489.0    5.152      39.324
2018    6        5    13   1    2.7434   489.1    5.151      39.323
2018    6        5    13   8    2.7426   489.1    5.150      39.322
2018    6        5    13  16    2.7419   489.1    5.150      39.321
2018    6        5    13  23    2.7412   489.1    5.149      39.320
2018    6        5    13  30    2.7405   489.2    5.148      39.319
2018    6        5    13  37    2.7398   489.2    5.147      39.318
2018    6        5    13  45    2.7390   489.2    5.146      39.316
2018    6        5    13  52    2.7383   489.2    5.146      39.315
2018    6        5    13  59    2.7376   489.2    5.145      39.314
2018    6        5    14   6    2.7368   489.3    5.144      39.312
2018    6        5    14  14    2.7361   489.3    5.143      39.311
2018    6        5    14  21    2.7353   489.3    5.142      39.309
2018    6        5    14  28    2.7345   489.3    5.141      39.307
2018    6        5    14  35    2.7338   489.3    5.140      39.306
2018    6        5    14  43    2.7330   489.4    5.139      39.304
2018    6        5    14  50    2.7323   489.4    5.138      39.302
2018    6        5    14  57    2.7315   489.4    5.137      39.300
2018    6        5    15   4    2.7307   489.4    5.136      39.298
2018    6        5    15  12    2.7300   489.5    5.135      39.297
2018    6        5    15  19    2.7292   489.5    5.134      39.295
2018    6        5    15  26    2.7284   489.5    5.133      39.293
2018    6        5    15  33    2.7277   489.5    5.132      39.291
2018    6        5    15  41    2.7269   489.5    5.131      39.288
2018    6        5    15  48    2.7261   489.6    5.130      39.286
2018    6        5    15  55    2.7254   489.6    5.129      39.283
2018    6        5    16   2    2.7246   489.6    5.128      39.281
2018    6        5    16  10    2.7238   489.6    5.127      39.279
2018    6        5    16  17    2.7229   489.7    5.126      39.276
2018    6        5    16  24    2.7221   489.7    5.125      39.274
2018    6        5    16  32    2.7213   489.7    5.123      39.271
2018    6        5    16  39    2.7204   489.7    5.122      39.268
2018    6        5    16  46    2.7196   489.8    5.121      39.264
2018    6        5    16  53    2.7187   489.8    5.119      39.261
2018    6        5    17   1    2.7178   489.8    5.118      39.256
2018    6        5    17   8    2.7169   489.8    5.116      39.252
2018    6        5    17  15    2.7160   489.8    5.115      39.247
2018    6        5    17  22    2.7151   489.9    5.113      39.242
2018    6        5    17  30    2.7142   489.9    5.112      39.237
2018    6        5    17  37    2.7132   489.9    5.110      39.231
2018    6        5    17  44    2.7123   489.9    5.108      39.226
2018    6        5    17  51    2.7113   489.9    5.107      39.220
2018    6        5    17  59    2.7104   489.9    5.105      39.214
2018    6        5    18   6    2.7094   489.9    5.103      39.208
2018    6        5    18  13    2.7085   490.0    5.101      39.202
2018    6        5    18  20    2.7075   490.0    5.099      39.195
2018    6        5    18  28    2.7065   490.0    5.098      39.189
2018    6        5    18  35    2.7055   490.0    5.096      39.183
2018    6        5    18  42    2.7045   490.0    5.094      39.176
2018    6        5    18  49    2.7035   490.0    5.092      39.170
2018    6        5    18  57    2.7025   490.0    5.090      39.163
2018    6        5    19   4    2.7015   490.0    5.089      39.156
2018    6        5    19  11    2.7005   490.1    5.087      39.150
2018    6        5    19  18    2.6995   490.1    5.085      39.143
2018    6        5    19  26    2.6985   490.1    5.083      39.136
2018    6        5    19  33    2.6975   490.1    5.081      39.129
2018    6        5    19  40    2.6964   490.1    5.079      39.122
2018    6        5    19  47    2.6954   490.1    5.078      39.115
2018    6        5    19  55    2.6944   490.1    5.076      39.108
2018    6        5    20   2    2.6934   490.1    5.074      39.101
2018    6        5    20   9    2.6923   490.1    5.072      39.094
2018    6        5    20  16    2.6913   490.1    5.070      39.087
2018    6        5    20  24    2.6902   490.1    5.068      39.080
2018    6        5    20  31    2.6892   490.2    5.066      39.072
2018    6        5    20  38    2.6881   490.2    5.064      39.065
2018    6        5    20  45    2.6871   490.2    5.062      39.057
2018    6        5    20  53    2.6860   490.2    5.060      39.049
2018    6        5    21   0    2.6850   490.2    5.058      39.041
2018    6        5    21   7    2.6839   490.2    5.057      39.034
2018    6        5    21  14    2.6828   490.2    5.055      39.026
2018    6        5    21  22    2.6818   490.2    5.053      39.018
2018    6        5    21  29    2.6807   490.2    5.051      39.010
2018    6        5    21  36    2.6796   490.2    5.049      39.002
2018    6        5    21  43    2.6786   490.2    5.047      38.993
2018    6        5    21  51    2.6775   490.2    5.045      38.985
2018    6        5    21  58    2.6764   490.2    5.043      38.977
2018    6        5    22   5    2.6753   490.2    5.041      38.969
2018    6        5    22  12    2.6743   490.2    5.039      38.961
2018    6        5    22  20    2.6732   490.2    5.037      38.953
2018    6        5    22  27    2.6721   490.2    5.035      38.944
2018    6        5    22  34    2.6711   490.2    5.033      38.936
2018    6        5    22  41    2.6700   490.2    5.032      38.928
2018    6        5    22  49    2.6690   490.2    5.030      38.920
2018    6        5    22  56    2.6679   490.2    5.028      38.912
2018    6        5    23   3    2.6668   490.2    5.026      38.903
2018    6        5    23  11    2.6658   490.2    5.025      38.895
2018    6        5    23  18    2.6647   490.2    5.023      38.886
2018    6        5    23  25    2.6636   490.2    5.022      38.878
2018    6        5    23  32    2.6625   490.2    5.020      38.870
2018    6        5    23  40    2.6615   490.2    5.018      38.861
2018    6        5    23  47    2.6604   490.2    5.017      38.853
2018    6        5    23  54    2.6593   490.2    5.015      38.845
2018    6        6     0   1    2.6582   490.2    5.014      38.836
2018    6        6     0   9    2.6570   490.2    5.012      38.827
2018    6        6     0  16    2.6559   490.2    5.010      38.817
2018    6        6     0  23    2.6548   490.2    5.008      38.808
2018    6        6     0  30    2.6537   490.2    5.007      38.798
2018    6        6     0  38    2.6525   490.2    5.005      38.788
2018    6        6     0  45    2.6514   490.1    5.003      38.777
2018    6        6     0  52    2.6503   490.1    5.001      38.767
2018    6        6     0  59    2.6491   490.1    5.000      38.756
2018    6        6     1   7    2.6479   490.1    4.998      38.745
2018    6        6     1  14    2.6468   490.1    4.996      38.733
2018    6        6     1  21    2.6457   490.1    4.994      38.722
2018    6        6     1  28    2.6445   490.1    4.992      38.710
2018    6        6     1  36    2.6434   490.1    4.990      38.698
2018    6        6     1  43    2.6422   490.0    4.988      38.686
2018    6        6     1  50    2.6411   490.0    4.986      38.674
2018    6        6     1  57    2.6399   490.0    4.984      38.661
2018    6        6     2   5    2.6388   490.0    4.982      38.649
2018    6        6     2  12    2.6377   490.0    4.980      38.636
2018    6        6     2  19    2.6366   490.0    4.978      38.623
2018    6        6     2  26    2.6354   489.9    4.976      38.610
2018    6        6     2  34    2.6343   489.9    4.974      38.596
2018    6        6     2  41    2.6332   489.9    4.972      38.583
2018    6        6     2  48    2.6321   489.9    4.970      38.569
2018    6        6     2  55    2.6309   489.9    4.968      38.555
2018    6        6     3   3    2.6298   489.8    4.966      38.541
2018    6        6     3  10    2.6287   489.8    4.963      38.527
2018    6        6     3  17    2.6276   489.8    4.961      38.513
2018    6        6     3  24    2.6265   489.8    4.959      38.498
2018    6        6     3  32    2.6253   489.8    4.956      38.484
2018    6        6     3  39    2.6242   489.7    4.954      38.469
2018    6        6     3  46    2.6231   489.7    4.952      38.454
2018    6        6     3  53    2.6219   489.7    4.949      38.438
2018    6        6     4   1    2.6208   489.7    4.947      38.423
2018    6        6     4   8    2.6196   489.6    4.945      38.407
2018    6        6     4  15    2.6185   489.6    4.942      38.391
2018    6        6     4  22    2.6173   489.6    4.940      38.374
2018    6        6     4  30    2.6162   489.6    4.937      38.358
2018    6        6     4  37    2.6150   489.5    4.935      38.341
2018    6        6     4  44    2.6138   489.5    4.932      38.324
2018    6        6     4  51    2.6127   489.5    4.930      38.306
2018    6        6     4  59    2.6115   489.4    4.928      38.289
2018    6        6     5   6    2.6104   489.4    4.925      38.272
2018    6        6     5  13    2.6092   489.4    4.923      38.254
2018    6        6     5  21    2.6081   489.3    4.920      38.236
2018    6        6     5  28    2.6069   489.3    4.918      38.219
2018    6        6     5  35    2.6058   489.2    4.916      38.201
2018    6        6     5  42    2.6047   489.2    4.914      38.184
2018    6        6     5  50    2.6036   489.2    4.912      38.166
2018    6        6     5  57    2.6025   489.1    4.910      38.149
2018    6        6     6   4    2.6014   489.1    4.908      38.132
2018    6        6     6  11    2.6003   489.0    4.906      38.115
2018    6        6     6  19    2.5992   489.0    4.904      38.098
2018    6        6     6  26    2.5982   488.9    4.902      38.081
2018    6        6     6  33    2.5971   488.9    4.901      38.065
2018    6        6     6  40    2.5961   488.8    4.899      38.049
2018    6        6     6  48    2.5951   488.8    4.898      38.034
2018    6        6     6  55    2.5941   488.8    4.897      38.019
2018    6        6     7   2    2.5930   488.7    4.895      38.005
2018    6        6     7   9    2.5920   488.7    4.894      37.990
2018    6        6     7  17    2.5910   488.6    4.893      37.976
2018    6        6     7  24    2.5900   488.6    4.891      37.962
2018    6        6     7  31    2.5890   488.5    4.890      37.948
2018    6        6     7  38    2.5880   488.5    4.889      37.933
2018    6        6     7  46    2.5870   488.4    4.888      37.919
2018    6        6     7  53    2.5860   488.4    4.887      37.905
2018    6        6     8   0    2.5850   488.3    4.886      37.890
2018    6        6     8   7    2.5841   488.3    4.885      37.876
2018    6        6     8  15    2.5831   488.2    4.883      37.861
2018    6        6     8  22    2.5821   488.2    4.882      37.846
2018    6        6     8  29    2.5812   488.1    4.881      37.831
2018    6        6     8  36    2.5802   488.1    4.880      37.816
2018    6        6     8  44    2.5793   488.0    4.879      37.801
2018    6        6     8  51    2.5783   488.0    4.878      37.786
2018    6        6     8  58    2.5774   487.9    4.877      37.771
2018    6        6     9   5    2.5765   487.9    4.876      37.755
2018    6        6     9  13    2.5756   487.8    4.875      37.739
2018    6        6     9  20    2.5747   487.8    4.874      37.723
2018    6        6     9  27    2.5737   487.7    4.873      37.707
2018    6        6     9  34    2.5728   487.7    4.872      37.691
2018    6        6     9  42    2.5719   487.7    4.871      37.674
2018    6        6     9  49    2.5710   487.6    4.870      37.657
2018    6        6     9  56    2.5701   487.6    4.868      37.640
2018    6        6    10   3    2.5692   487.5    4.867      37.623
2018    6        6    10  11    2.5682   487.5    4.866      37.605
2018    6        6    10  18    2.5673   487.4    4.865      37.587
2018    6        6    10  25    2.5664   487.4    4.863      37.570
2018    6        6    10  32    2.5655   487.3    4.862      37.551
2018    6        6    10  40    2.5646   487.3    4.861      37.533
2018    6        6    10  47    2.5636   487.2    4.859      37.515
2018    6        6    10  54    2.5627   487.1    4.858      37.496
2018    6        6    11   1    2.5618   487.1    4.856      37.477
2018    6        6    11   9    2.5609   487.0    4.855      37.459
2018    6        6    11  16    2.5600   487.0    4.854      37.440
2018    6        6    11  23    2.5590   486.9    4.853      37.421
2018    6        6    11  30    2.5581   486.9    4.851      37.402
2018    6        6    11  38    2.5572   486.8    4.850      37.384
2018    6        6    11  45    2.5562   486.8    4.849      37.365
2018    6        6    11  52    2.5553   486.7    4.848      37.346
2018    6        6    12   0    2.5544   486.7    4.847      37.328
2018    6        6    12   7    2.5535   486.6    4.846      37.309
2018    6        6    12  14    2.5526   486.6    4.845      37.291
2018    6        6    12  21    2.5517   486.5    4.844      37.273
2018    6        6    12  29    2.5508   486.4    4.843      37.256
2018    6        6    12  36    2.5500   486.4    4.842      37.239
2018    6        6    12  43    2.5491   486.3    4.842      37.222
2018    6        6    12  50    2.5483   486.3    4.841      37.205
2018    6        6    12  58    2.5474   486.2    4.841      37.189
2018    6        6    13   5    2.5466   486.1    4.840      37.174
2018    6        6    13  12    2.5458   486.1    4.840      37.159
2018    6        6    13  19    2.5451   486.0    4.840      37.144
2018    6        6    13  27    2.5443   485.9    4.840      37.130
2018    6        6    13  34    2.5436   485.9    4.840      37.117
2018    6        6    13  41    2.5429   485.8    4.841      37.105
2018    6        6    13  48    2.5422   485.7    4.841      37.093
2018    6        6    13  56    2.5415   485.7    4.841      37.083
2018    6        6    14   3    2.5408   485.6    4.841      37.073
2018    6        6    14  10    2.5401   485.5    4.842      37.063
2018    6        6    14  17    2.5394   485.5    4.842      37.053
2018    6        6    14  25    2.5387   485.4    4.842      37.044
2018    6        6    14  32    2.5381   485.3    4.842      37.034
2018    6        6    14  39    2.5374   485.3    4.842      37.024
2018    6        6    14  46    2.5367   485.2    4.842      37.014
2018    6        6    14  54    2.5360   485.2    4.842      37.004
2018    6        6    15   1    2.5354   485.1    4.842      36.994
2018    6        6    15   8    2.5347   485.0    4.842      36.983
2018    6        6    15  15    2.5341   485.0    4.842      36.972
2018    6        6    15  23    2.5334   484.9    4.842      36.961
2018    6        6    15  30    2.5328   484.8    4.842      36.950
2018    6        6    15  37    2.5321   484.8    4.841      36.938
2018    6        6    15  44    2.5314   484.7    4.841      36.925
2018    6        6    15  52    2.5308   484.7    4.841      36.912
2018    6        6    15  59    2.5301   484.6    4.840      36.899
2018    6        6    16   6    2.5295   484.5    4.840      36.886
2018    6        6    16  13    2.5288   484.5    4.839      36.872
2018    6        6    16  21    2.5281   484.4    4.839      36.857
2018    6        6    16  28    2.5274   484.4    4.838      36.843
2018    6        6    16  35    2.5268   484.3    4.838      36.828
2018    6        6    16  42    2.5261   484.2    4.837      36.812
2018    6        6    16  50    2.5254   484.2    4.837      36.797
2018    6        6    16  57    2.5247   484.1    4.836      36.781
2018    6        6    17   4    2.5240   484.1    4.835      36.764
2018    6        6    17  11    2.5233   484.0    4.834      36.747
2018    6        6    17  19    2.5226   483.9    4.834      36.730
2018    6        6    17  26    2.5219   483.9    4.833      36.713
2018    6        6    17  33    2.5212   483.8    4.832      36.695
2018    6        6    17  40    2.5205   483.8    4.831      36.678
2018    6        6    17  48    2.5198   483.7    4.830      36.659
2018    6        6    17  55    2.5190   483.7    4.829      36.641
2018    6        6    18   2    2.5183   483.6    4.828      36.622
2018    6        6    18  10    2.5176   483.5    4.827      36.603
2018    6        6    18  17    2.5169   483.5    4.826      36.584
2018    6        6    18  24    2.5162   483.4    4.825      36.565
2018    6        6    18  31    2.5154   483.4    4.824      36.545
2018    6        6    18  39    2.5147   483.3    4.823      36.526
2018    6        6    18  46    2.5140   483.2    4.822      36.506
2018    6        6    18  53    2.5133   483.2    4.821      36.486
2018    6        6    19   0    2.5126   483.1    4.820      36.467
2018    6        6    19   8    2.5119   483.0    4.819      36.447
2018    6        6    19  15    2.5112   483.0    4.818      36.428
2018    6        6    19  22    2.5105   482.9    4.818      36.409
2018    6        6    19  29    2.5098   482.9    4.817      36.390
2018    6        6    19  37    2.5091   482.8    4.817      36.372
2018    6        6    19  44    2.5085   482.7    4.816      36.354
2018    6        6    19  51    2.5078   482.6    4.816      36.337
2018    6        6    19  58    2.5072   482.6    4.816      36.320
2018    6        6    20   6    2.5066   482.5    4.816      36.304
2018    6        6    20  13    2.5060   482.4    4.816      36.289
2018    6        6    20  20    2.5055   482.4    4.817      36.274
2018    6        6    20  27    2.5049   482.3    4.818      36.260
2018    6        6    20  35    2.5044   482.2    4.818      36.247
2018    6        6    20  42    2.5039   482.2    4.819      36.236
2018    6        6    20  49    2.5035   482.1    4.820      36.225
2018    6        6    20  56    2.5030   482.0    4.822      36.215
2018    6        6    21   4    2.5026   481.9    4.823      36.207
2018    6        6    21  11    2.5022   481.9    4.824      36.199
2018    6        6    21  18    2.5018   481.8    4.826      36.192
2018    6        6    21  25    2.5014   481.7    4.827      36.185
2018    6        6    21  33    2.5011   481.6    4.829      36.178
2018    6        6    21  40    2.5007   481.6    4.830      36.171
2018    6        6    21  47    2.5003   481.5    4.832      36.165
2018    6        6    21  54    2.5000   481.4    4.834      36.159
2018    6        6    22   2    2.4997   481.4    4.835      36.153
2018    6        6    22   9    2.4993   481.3    4.837      36.147
2018    6        6    22  16    2.4990   481.2    4.838      36.142
2018    6        6    22  23    2.4987   481.2    4.840      36.136
2018    6        6    22  31    2.4984   481.1    4.841      36.131
2018    6        6    22  38    2.4981   481.0    4.843      36.125
2018    6        6    22  45    2.4978   480.9    4.844      36.120
2018    6        6    22  52    2.4974   480.9    4.846      36.114
2018    6        6    23   0    2.4971   480.8    4.847      36.108
2018    6        6    23   7    2.4968   480.7    4.848      36.102
2018    6        6    23  14    2.4964   480.7    4.849      36.095
2018    6        6    23  21    2.4960   480.6    4.850      36.088
2018    6        6    23  29    2.4956   480.5    4.850      36.081
2018    6        6    23  36    2.4953   480.5    4.851      36.073
2018    6        6    23  43    2.4949   480.4    4.852      36.064
2018    6        6    23  50    2.4945   480.3    4.852      36.055
2018    6        6    23  58    2.4940   480.3    4.853      36.046
2018    6        7     0   5    2.4936   480.2    4.853      36.036
2018    6        7     0  12    2.4932   480.1    4.853      36.025
2018    6        7     0  20    2.4928   480.1    4.854      36.014
2018    6        7     0  27    2.4924   480.0    4.854      36.003
2018    6        7     0  34    2.4919   480.0    4.854      35.992
2018    6        7     0  41    2.4915   479.9    4.854      35.980
2018    6        7     0  49    2.4910   479.8    4.854      35.968
2018    6        7     0  56    2.4906   479.8    4.854      35.956
2018    6        7     1   3    2.4901   479.7    4.854      35.943
2018    6        7     1  10    2.4897   479.6    4.854      35.930
2018    6        7     1  18    2.4893   479.6    4.853      35.917
2018    6        7     1  25    2.4888   479.5    4.853      35.904
2018    6        7     1  32    2.4884   479.4    4.853      35.890
2018    6        7     1  39    2.4879   479.4    4.853      35.876
2018    6        7     1  47    2.4875   479.3    4.852      35.862
2018    6        7     1  54    2.4870   479.3    4.852      35.848
2018    6        7     2   1    2.4866   479.2    4.852      35.834
2018    6        7     2   8    2.4862   479.1    4.851      35.820
2018    6        7     2  16    2.4857   479.1    4.851      35.806
2018    6        7     2  23    2.4853   479.0    4.851      35.791
2018    6        7     2  30    2.4849   478.9    4.850      35.777
2018    6        7     2  37    2.4844   478.9    4.850      35.763
2018    6        7     2  45    2.4840   478.8    4.850      35.749
2018    6        7     2  52    2.4836   478.7    4.850      35.735
2018    6        7     2  59    2.4832   478.7    4.850      35.721
2018    6        7     3   6    2.4828   478.6    4.849      35.708
2018    6        7     3  14    2.4824   478.5    4.849      35.694
2018    6        7     3  21    2.4821   478.5    4.850      35.681
2018    6        7     3  28    2.4817   478.4    4.850      35.669
2018    6        7     3  35    2.4813   478.3    4.850      35.656
2018    6        7     3  43    2.4810   478.3    4.850      35.644
2018    6        7     3  50    2.4807   478.2    4.851      35.633
2018    6        7     3  57    2.4804   478.1    4.851      35.622
2018    6        7     4   4    2.4801   478.1    4.852      35.611
2018    6        7     4  12    2.4798   478.0    4.853      35.601
2018    6        7     4  19    2.4796   477.9    4.854      35.591
2018    6        7     4  26    2.4793   477.9    4.855      35.582
2018    6        7     4  33    2.4791   477.8    4.856      35.573
2018    6        7     4  41    2.4789   477.7    4.857      35.564
2018    6        7     4  48    2.4787   477.7    4.859      35.556
2018    6        7     4  55    2.4785   477.6    4.860      35.548
2018    6        7     5   2    2.4783   477.5    4.862      35.541
2018    6        7     5  10    2.4782   477.4    4.864      35.534
2018    6        7     5  17    2.4780   477.4    4.865      35.527
2018    6        7     5  24    2.4778   477.3    4.867      35.521
2018    6        7     5  31    2.4777   477.2    4.869      35.515
2018    6        7     5  39    2.4775   477.2    4.871      35.509
2018    6        7     5  46    2.4774   477.1    4.872      35.504
2018    6        7     5  53    2.4773   477.0    4.874      35.498
2018    6        7     6   0    2.4771   477.0    4.876      35.494
2018    6        7     6   8    2.4770   476.9    4.878      35.489
2018    6        7     6  15    2.4769   476.8    4.879      35.485
2018    6        7     6  22    2.4767   476.7    4.881      35.480
2018    6        7     6  29    2.4766   476.7    4.883      35.476
2018    6        7     6  37    2.4764   476.6    4.884      35.472
2018    6        7     6  44    2.4762   476.5    4.886      35.468
2018    6        7     6  51    2.4761   476.5    4.887      35.463
2018    6        7     6  59    2.4759   476.4    4.889      35.458
2018    6        7     7   6    2.4758   476.3    4.890      35.453
2018    6        7     7  13    2.4756   476.3    4.892      35.448
2018    6        7     7  20    2.4754   476.2    4.893      35.443
2018    6        7     7  28    2.4753   476.1    4.894      35.438
2018    6        7     7  35    2.4751   476.1    4.896      35.432
2018    6        7     7  42    2.4749   476.0    4.897      35.427
2018    6        7     7  49    2.4748   475.9    4.898      35.421
2018    6        7     7  57    2.4746   475.9    4.900      35.416
2018    6        7     8   4    2.4744   475.8    4.901      35.410
2018    6        7     8  11    2.4743   475.7    4.902      35.405
2018    6        7     8  18    2.4741   475.7    4.904      35.399
2018    6        7     8  26    2.4739   475.6    4.905      35.394
2018    6        7     8  33    2.4738   475.5    4.906      35.388
2018    6        7     8  40    2.4737   475.5    4.908      35.383
2018    6        7     8  47    2.4735   475.4    4.909      35.377
2018    6        7     8  55    2.4734   475.3    4.910      35.372
2018    6        7     9   2    2.4732   475.3    4.912      35.367
2018    6        7     9   9    2.4731   475.2    4.913      35.362
2018    6        7     9  16    2.4729   475.2    4.914      35.357
2018    6        7     9  24    2.4728   475.1    4.916      35.352
2018    6        7     9  31    2.4727   475.0    4.917      35.347
2018    6        7     9  38    2.4725   475.0    4.918      35.342
2018    6        7     9  45    2.4724   474.9    4.920      35.338
2018    6        7     9  53    2.4722   474.9    4.921      35.334
2018    6        7    10   0    2.4721   474.8    4.923      35.330
2018    6        7    10   7    2.4720   474.8    4.924      35.326
2018    6        7    10  14    2.4718   474.7    4.925      35.323
2018    6        7    10  22    2.4717   474.6    4.926      35.319
2018    6        7    10  29    2.4715   474.6    4.928      35.316
2018    6        7    10  36    2.4714   474.5    4.929      35.313
2018    6        7    10  43    2.4712   474.5    4.930      35.310
2018    6        7    10  51    2.4711   474.4    4.931      35.307
2018    6        7    10  58    2.4709   474.4    4.932      35.304
2018    6        7    11   5    2.4708   474.3    4.933      35.301
2018    6        7    11  12    2.4706   474.3    4.934      35.298
2018    6        7    11  20    2.4704   474.2    4.935      35.294
2018    6        7    11  27    2.4703   474.2    4.936      35.291
2018    6        7    11  34    2.4701   474.1    4.937      35.286
2018    6        7    11  41    2.4699   474.1    4.937      35.282
2018    6        7    11  49    2.4698   474.0    4.938      35.278
2018    6        7    11  56    2.4696   473.9    4.939      35.273
2018    6        7    12   3    2.4694   473.9    4.940      35.268
2018    6        7    12  10    2.4693   473.8    4.940      35.263
2018    6        7    12  18    2.4691   473.8    4.941      35.257
2018    6        7    12  25    2.4689   473.7    4.942      35.252
2018    6        7    12  32    2.4687   473.7    4.942      35.246
2018    6        7    12  39    2.4686   473.6    4.943      35.240
2018    6        7    12  47    2.4684   473.6    4.943      35.233
2018    6        7    12  54    2.4682   473.5    4.944      35.227
2018    6        7    13   1    2.4680   473.5    4.945      35.220
2018    6        7    13   8    2.4678   473.4    4.945      35.213
2018    6        7    13  16    2.4677   473.4    4.945      35.206
2018    6        7    13  23    2.4675   473.3    4.946      35.199
2018    6        7    13  30    2.4673   473.2    4.946      35.191
2018    6        7    13  38    2.4671   473.2    4.947      35.184
2018    6        7    13  45    2.4669   473.1    4.947      35.176
2018    6        7    13  52    2.4668   473.1    4.948      35.169
2018    6        7    13  59    2.4666   473.0    4.948      35.161
2018    6        7    14   7    2.4664   473.0    4.948      35.153
2018    6        7    14  14    2.4662   472.9    4.949      35.145
2018    6        7    14  21    2.4660   472.9    4.949      35.137
2018    6        7    14  28    2.4658   472.8    4.949      35.130
2018    6        7    14  36    2.4657   472.7    4.950      35.122
2018    6        7    14  43    2.4655   472.7    4.950      35.115
2018    6        7    14  50    2.4653   472.6    4.951      35.107
2018    6        7    14  57    2.4651   472.6    4.951      35.100
2018    6        7    15   5    2.4649   472.5    4.952      35.093
2018    6        7    15  12    2.4648   472.5    4.952      35.086
2018    6        7    15  19    2.4646   472.4    4.953      35.079
2018    6        7    15  26    2.4644   472.4    4.953      35.073
2018    6        7    15  34    2.4643   472.3    4.954      35.067
2018    6        7    15  41    2.4641   472.3    4.955      35.061
2018    6        7    15  48    2.4640   472.2    4.955      35.055
2018    6        7    15  55    2.4638   472.1    4.956      35.050
2018    6        7    16   3    2.4637   472.1    4.957      35.044
2018    6        7    16  10    2.4635   472.0    4.958      35.039
2018    6        7    16  17    2.4634   472.0    4.959      35.034
2018    6        7    16  24    2.4632   471.9    4.959      35.030
2018    6        7    16  32    2.4631   471.9    4.960      35.025
2018    6        7    16  39    2.4630   471.8    4.961      35.021
2018    6        7    16  46    2.4628   471.8    4.962      35.017
2018    6        7    16  53    2.4627   471.7    4.964      35.013
2018    6        7    17   1    2.4625   471.7    4.965      35.010
2018    6        7    17   8    2.4624   471.6    4.966      35.007
2018    6        7    17  15    2.4622   471.6    4.967      35.004
2018    6        7    17  22    2.4621   471.5    4.968      35.001
2018    6        7    17  30    2.4619   471.5    4.969      34.999
2018    6        7    17  37    2.4617   471.5    4.970      34.996
2018    6        7    17  44    2.4616   471.4    4.970      34.994
2018    6        7    17  51    2.4614   471.4    4.971      34.992
2018    6        7    17  59    2.4612   471.3    4.972      34.990
2018    6        7    18   6    2.4611   471.3    4.973      34.988
2018    6        7    18  13    2.4609   471.2    4.973      34.986
2018    6        7    18  20    2.4607   471.2    4.974      34.983
2018    6        7    18  28    2.4605   471.1    4.975      34.980
2018    6        7    18  35    2.4603   471.1    4.975      34.978
2018    6        7    18  42    2.4601   471.0    4.975      34.974
2018    6        7    18  49    2.4598   471.0    4.976      34.971
2018    6        7    18  57    2.4596   470.9    4.976      34.967
2018    6        7    19   4    2.4594   470.9    4.976      34.963
2018    6        7    19  11    2.4591   470.9    4.977      34.959
2018    6        7    19  18    2.4589   470.8    4.977      34.954
2018    6        7    19  26    2.4586   470.8    4.977      34.949
2018    6        7    19  33    2.4584   470.7    4.977      34.944
2018    6        7    19  40    2.4581   470.7    4.977      34.938
2018    6        7    19  48    2.4578   470.6    4.976      34.933
2018    6        7    19  55    2.4575   470.6    4.976      34.926
2018    6        7    20   2    2.4572   470.5    4.976      34.920
2018    6        7    20   9    2.4569   470.5    4.976      34.913
2018    6        7    20  17    2.4566   470.4    4.975      34.906
2018    6        7    20  24    2.4563   470.4    4.975      34.899
2018    6        7    20  31    2.4560   470.4    4.975      34.891
2018    6        7    20  38    2.4556   470.3    4.974      34.883
2018    6        7    20  46    2.4553   470.3    4.974      34.875
2018    6        7    20  53    2.4550   470.2    4.973      34.866
2018    6        7    21   0    2.4546   470.2    4.972      34.858
2018    6        7    21   7    2.4543   470.1    4.972      34.849
2018    6        7    21  15    2.4539   470.1    4.971      34.840
2018    6        7    21  22    2.4536   470.0    4.971      34.830
2018    6        7    21  29    2.4532   470.0    4.970      34.821
2018    6        7    21  36    2.4528   469.9    4.969      34.811
2018    6        7    21  44    2.4525   469.9    4.968      34.801
2018    6        7    21  51    2.4521   469.8    4.968      34.791
2018    6        7    21  58    2.4517   469.8    4.967      34.781
2018    6        7    22   5    2.4513   469.7    4.966      34.770
2018    6        7    22  13    2.4509   469.7    4.966      34.760
2018    6        7    22  20    2.4505   469.6    4.965      34.749
2018    6        7    22  27    2.4502   469.6    4.964      34.739
2018    6        7    22  34    2.4498   469.5    4.963      34.728
2018    6        7    22  42    2.4494   469.5    4.963      34.718
2018    6        7    22  49    2.4490   469.4    4.962      34.707
2018    6        7    22  56    2.4486   469.4    4.961      34.697
2018    6        7    23   3    2.4482   469.3    4.960      34.686
2018    6        7    23  11    2.4478   469.3    4.960      34.675
2018    6        7    23  18    2.4473   469.2    4.959      34.665
2018    6        7    23  25    2.4469   469.2    4.958      34.654
2018    6        7    23  32    2.4465   469.1    4.958      34.644
2018    6        7    23  40    2.4461   469.0    4.957      34.633
2018    6        7    23  47    2.4457   469.0    4.956      34.623
2018    6        7    23  54    2.4453   468.9    4.956      34.613
2018    6        8     0   1    2.4448   468.9    4.955      34.602
2018    6        8     0   9    2.4442   468.8    4.954      34.591
2018    6        8     0  16    2.4436   468.8    4.953      34.579
2018    6        8     0  23    2.4430   468.7    4.952      34.568
2018    6        8     0  30    2.4424   468.7    4.951      34.557
2018    6        8     0  38    2.4418   468.6    4.950      34.546
2018    6        8     0  45    2.4411   468.6    4.949      34.535
2018    6        8     0  52    2.4405   468.5    4.948      34.524
2018    6        8     0  59    2.4400   468.5    4.947      34.513
2018    6        8     1   7    2.4394   468.4    4.946      34.503
2018    6        8     1  14    2.4388   468.4    4.945      34.492
2018    6        8     1  21    2.4382   468.3    4.944      34.482
2018    6        8     1  28    2.4376   468.3    4.943      34.472
2018    6        8     1  36    2.4370   468.2    4.942      34.462
2018    6        8     1  43    2.4365   468.2    4.942      34.452
2018    6        8     1  50    2.4359   468.1    4.941      34.442
2018    6        8     1  57    2.4353   468.1    4.940      34.432
2018    6        8     2   5    2.4348   468.0    4.939      34.422
2018    6        8     2  12    2.4342   468.0    4.938      34.412
2018    6        8     2  19    2.4336   467.9    4.938      34.402
2018    6        8     2  27    2.4330   467.9    4.937      34.393
2018    6        8     2  34    2.4325   467.8    4.936      34.383
2018    6        8     2  41    2.4319   467.8    4.935      34.373
2018    6        8     2  48    2.4313   467.7    4.934      34.364
2018    6        8     2  56    2.4307   467.7    4.933      34.354
2018    6        8     3   3    2.4301   467.6    4.932      34.344
2018    6        8     3  10    2.4294   467.6    4.932      34.334
2018    6        8     3  17    2.4288   467.5    4.931      34.324
2018    6        8     3  25    2.4282   467.5    4.930      34.314
2018    6        8     3  32    2.4275   467.4    4.929      34.304
2018    6        8     3  39    2.4269   467.4    4.928      34.294
2018    6        8     3  46    2.4262   467.3    4.927      34.283
2018    6        8     3  54    2.4255   467.3    4.926      34.273
2018    6        8     4   1    2.4249   467.2    4.925      34.262
2018    6        8     4   8    2.4242   467.2    4.924      34.251
2018    6        8     4  15    2.4235   467.1    4.923      34.239
2018    6        8     4  23    2.4228   467.0    4.922      34.228
2018    6        8     4  30    2.4221   467.0    4.920      34.217
2018    6        8     4  37    2.4214   466.9    4.919      34.205
2018    6        8     4  44    2.4207   466.9    4.918      34.193
2018    6        8     4  52    2.4200   466.8    4.917      34.181
2018    6        8     4  59    2.4192   466.7    4.916      34.169
2018    6        8     5   6    2.4185   466.7    4.915      34.156
2018    6        8     5  13    2.4178   466.6    4.913      34.144
2018    6        8     5  21    2.4170   466.6    4.912      34.131
2018    6        8     5  28    2.4163   466.5    4.911      34.118
2018    6        8     5  35    2.4156   466.4    4.909      34.105
2018    6        8     5  42    2.4148   466.4    4.908      34.092
2018    6        8     5  50    2.4141   466.3    4.907      34.078
2018    6        8     5  57    2.4133   466.3    4.905      34.065
2018    6        8     6   4    2.4125   466.2    4.904      34.051
2018    6        8     6  11    2.4118   466.1    4.903      34.037
2018    6        8     6  19    2.4110   466.1    4.901      34.023
2018    6        8     6  26    2.4103   466.0    4.900      34.009
2018    6        8     6  33    2.4095   465.9    4.898      33.994
2018    6        8     6  40    2.4087   465.9    4.897      33.980
2018    6        8     6  48    2.4079   465.8    4.895      33.965
2018    6        8     6  55    2.4072   465.8    4.894      33.950
2018    6        8     7   2    2.4064   465.7    4.892      33.935
2018    6        8     7   9    2.4056   465.6    4.890      33.920
2018    6        8     7  17    2.4048   465.6    4.889      33.905
2018    6        8     7  24    2.4040   465.5    4.887      33.889
2018    6        8     7  31    2.4032   465.4    4.886      33.874
2018    6        8     7  38    2.4024   465.4    4.884      33.858
2018    6        8     7  46    2.4017   465.3    4.882      33.843
2018    6        8     7  53    2.4009   465.2    4.881      33.827
2018    6        8     8   0    2.4001   465.2    4.879      33.812
2018    6        8     8   7    2.3993   465.1    4.878      33.796
2018    6        8     8  15    2.3985   465.0    4.876      33.780
2018    6        8     8  22    2.3978   464.9    4.875      33.765
2018    6        8     8  29    2.3970   464.9    4.873      33.749
2018    6        8     8  37    2.3962   464.8    4.872      33.734
2018    6        8     8  44    2.3955   464.7    4.870      33.719
2018    6        8     8  51    2.3947   464.7    4.869      33.703
2018    6        8     8  58    2.3940   464.6    4.868      33.688
2018    6        8     9   6    2.3933   464.5    4.866      33.673
2018    6        8     9  13    2.3925   464.5    4.865      33.659
2018    6        8     9  20    2.3918   464.4    4.864      33.644
2018    6        8     9  27    2.3911   464.3    4.863      33.630
2018    6        8     9  35    2.3904   464.2    4.862      33.616
2018    6        8     9  42    2.3897   464.2    4.861      33.602
2018    6        8     9  49    2.3890   464.1    4.860      33.589
2018    6        8     9  56    2.3883   464.0    4.859      33.576
2018    6        8    10   4    2.3877   464.0    4.858      33.563
2018    6        8    10  11    2.3870   463.9    4.857      33.550
2018    6        8    10  18    2.3863   463.8    4.857      33.537
2018    6        8    10  25    2.3857   463.8    4.856      33.525
2018    6        8    10  33    2.3850   463.7    4.856      33.513
2018    6        8    10  40    2.3843   463.6    4.855      33.501
2018    6        8    10  47    2.3837   463.6    4.855      33.489
2018    6        8    10  54    2.3830   463.5    4.854      33.478
2018    6        8    11   2    2.3823   463.4    4.854      33.466
2018    6        8    11   9    2.3816   463.4    4.853      33.455
2018    6        8    11  16    2.3809   463.3    4.853      33.443
2018    6        8    11  23    2.3802   463.2    4.852      33.432
2018    6        8    11  31    2.3794   463.2    4.852      33.420
2018    6        8    11  38    2.3787   463.1    4.851      33.409
2018    6        8    11  45    2.3780   463.0    4.851      33.397
2018    6        8    11  52    2.3772   463.0    4.850      33.385
2018    6        8    12   0    2.3765   462.9    4.850      33.373
2018    6        8    12   7    2.3758   462.8    4.849      33.361
2018    6        8    12  14    2.3750   462.7    4.849      33.349
2018    6        8    12  21    2.3742   462.7    4.848      33.337
2018    6        8    12  29    2.3735   462.6    4.847      33.325
2018    6        8    12  36    2.3727   462.5    4.846      33.313
2018    6        8    12  43    2.3720   462.4    4.846      33.300
2018    6        8    12  50    2.3712   462.4    4.845      33.288
2018    6        8    12  58    2.3704   462.3    4.844      33.275
2018    6        8    13   5    2.3697   462.2    4.843      33.262
2018    6        8    13  12    2.3689   462.1    4.842      33.249
2018    6        8    13  19    2.3681   462.1    4.841      33.236
2018    6        8    13  27    2.3674   462.0    4.840      33.223
2018    6        8    13  34    2.3666   461.9    4.839      33.210
2018    6        8    13  41    2.3658   461.8    4.838      33.196
2018    6        8    13  48    2.3650   461.8    4.837      33.183
2018    6        8    13  56    2.3642   461.7    4.835      33.169
2018    6        8    14   3    2.3634   461.6    4.834      33.155
2018    6        8    14  10    2.3626   461.5    4.833      33.141
2018    6        8    14  17    2.3619   461.5    4.832      33.126
2018    6        8    14  25    2.3610   461.4    4.830      33.111
2018    6        8    14  32    2.3602   461.3    4.829      33.096
2018    6        8    14  39    2.3594   461.2    4.827      33.081
2018    6        8    14  46    2.3586   461.1    4.826      33.066
2018    6        8    14  54    2.3578   461.1    4.824      33.050
2018    6        8    15   1    2.3570   461.0    4.823      33.034
2018    6        8    15   8    2.3562   460.9    4.821      33.018
2018    6        8    15  16    2.3553   460.8    4.820      33.002
2018    6        8    15  23    2.3545   460.7    4.818      32.986
2018    6        8    15  30    2.3537   460.7    4.817      32.969
2018    6        8    15  37    2.3529   460.6    4.815      32.952
2018    6        8    15  45    2.3520   460.5    4.814      32.935
2018    6        8    15  52    2.3512   460.4    4.812      32.918
2018    6        8    15  59    2.3504   460.3    4.811      32.901
2018    6        8    16   6    2.3496   460.2    4.809      32.884
2018    6        8    16  14    2.3487   460.2    4.808      32.866
2018    6        8    16  21    2.3479   460.1    4.806      32.849
2018    6        8    16  28    2.3471   460.0    4.805      32.832
2018    6        8    16  35    2.3463   459.9    4.804      32.815
2018    6        8    16  43    2.3455   459.8    4.803      32.797
2018    6        8    16  50    2.3447   459.7    4.801      32.780
2018    6        8    16  57    2.3439   459.7    4.800      32.763
2018    6        8    17   4    2.3432   459.6    4.799      32.746
2018    6        8    17  12    2.3424   459.5    4.798      32.729
2018    6        8    17  19    2.3416   459.4    4.797      32.713
2018    6        8    17  26    2.3409   459.3    4.796      32.696
2018    6        8    17  33    2.3401   459.2    4.795      32.680
2018    6        8    17  41    2.3394   459.1    4.794      32.664
2018    6        8    17  48    2.3386   459.1    4.793      32.648
2018    6        8    17  55    2.3379   459.0    4.793      32.632
2018    6        8    18   2    2.3371   458.9    4.792      32.616
2018    6        8    18  10    2.3364   458.8    4.791      32.601
2018    6        8    18  17    2.3356   458.7    4.791      32.585
2018    6        8    18  24    2.3349   458.6    4.790      32.570
2018    6        8    18  31    2.3342   458.6    4.790      32.555
2018    6        8    18  39    2.3334   458.5    4.789      32.541
2018    6        8    18  46    2.3327   458.4    4.789      32.526
2018    6        8    18  53    2.3319   458.3    4.788      32.511
2018    6        8    19   0    2.3312   458.2    4.788      32.497
2018    6        8    19   8    2.3304   458.1    4.787      32.483
2018    6        8    19  15    2.3296   458.1    4.787      32.469
2018    6        8    19  22    2.3289   458.0    4.787      32.455
2018    6        8    19  29    2.3282   457.9    4.786      32.441
2018    6        8    19  37    2.3274   457.8    4.786      32.427
2018    6        8    19  44    2.3267   457.7    4.786      32.413
2018    6        8    19  51    2.3260   457.6    4.785      32.400
2018    6        8    19  58    2.3253   457.5    4.785      32.387
2018    6        8    20   6    2.3245   457.5    4.785      32.374
2018    6        8    20  13    2.3238   457.4    4.784      32.361
2018    6        8    20  20    2.3232   457.3    4.784      32.348
2018    6        8    20  27    2.3225   457.2    4.784      32.335
2018    6        8    20  35    2.3218   457.1    4.784      32.323
2018    6        8    20  42    2.3211   457.0    4.784      32.310
2018    6        8    20  49    2.3204   457.0    4.783      32.298
2018    6        8    20  56    2.3197   456.9    4.783      32.286
2018    6        8    21   4    2.3191   456.8    4.783      32.274
2018    6        8    21  11    2.3184   456.7    4.782      32.263
2018    6        8    21  18    2.3177   456.6    4.782      32.251
2018    6        8    21  25    2.3170   456.6    4.781      32.238
2018    6        8    21  33    2.3163   456.5    4.781      32.226
2018    6        8    21  40    2.3155   456.4    4.780      32.213
2018    6        8    21  47    2.3148   456.3    4.779      32.201
2018    6        8    21  55    2.3140   456.2    4.779      32.188
2018    6        8    22   2    2.3133   456.1    4.778      32.174
2018    6        8    22   9    2.3125   456.0    4.777      32.160
2018    6        8    22  16    2.3117   456.0    4.776      32.146
2018    6        8    22  24    2.3109   455.9    4.775      32.131
2018    6        8    22  31    2.3101   455.8    4.774      32.116
2018    6        8    22  38    2.3093   455.7    4.772      32.101
2018    6        8    22  45    2.3085   455.6    4.771      32.086
2018    6        8    22  53    2.3077   455.5    4.770      32.069
2018    6        8    23   0    2.3069   455.4    4.769      32.053
2018    6        8    23   7    2.3061   455.3    4.768      32.037
2018    6        8    23  14    2.3052   455.2    4.766      32.020
2018    6        8    23  22    2.3044   455.1    4.765      32.003
2018    6        8    23  29    2.3036   455.1    4.764      31.986
2018    6        8    23  36    2.3027   455.0    4.762      31.968
2018    6        8    23  43    2.3019   454.9    4.761      31.950
2018    6        8    23  51    2.3010   454.8    4.760      31.932
2018    6        8    23  58    2.3002   454.7    4.758      31.914
2018    6        9     0   5    2.2995   454.6    4.757      31.897
2018    6        9     0  12    2.2988   454.5    4.756      31.879
2018    6        9     0  20    2.2981   454.4    4.756      31.862
2018    6        9     0  27    2.2975   454.3    4.755      31.844
2018    6        9     0  34    2.2968   454.2    4.754      31.826
2018    6        9     0  41    2.2961   454.1    4.753      31.808
2018    6        9     0  49    2.2955   454.0    4.752      31.790
2018    6        9     0  56    2.2948   453.8    4.752      31.772
2018    6        9     1   3    2.2941   453.7    4.751      31.753
2018    6        9     1  10    2.2935   453.6    4.750      31.735
2018    6        9     1  18    2.2928   453.5    4.749      31.716
2018    6        9     1  25    2.2921   453.4    4.749      31.697
2018    6        9     1  32    2.2915   453.3    4.748      31.679
2018    6        9     1  39    2.2908   453.2    4.748      31.660
2018    6        9     1  47    2.2902   453.1    4.747      31.641
2018    6        9     1  54    2.2895   453.0    4.746      31.622
2018    6        9     2   1    2.2889   452.9    4.746      31.603
2018    6        9     2   8    2.2882   452.8    4.745      31.584
2018    6        9     2  16    2.2876   452.7    4.745      31.566
2018    6        9     2  23    2.2870   452.6    4.744      31.547
2018    6        9     2  30    2.2863   452.4    4.744      31.528
2018    6        9     2  37    2.2857   452.3    4.744      31.510
2018    6        9     2  45    2.2851   452.2    4.743      31.492
2018    6        9     2  52    2.2845   452.1    4.743      31.473
2018    6        9     2  59    2.2839   452.0    4.743      31.455
2018    6        9     3   6    2.2833   451.9    4.743      31.438
2018    6        9     3  14    2.2827   451.8    4.743      31.420
2018    6        9     3  21    2.2821   451.7    4.743      31.403
2018    6        9     3  28    2.2815   451.6    4.743      31.386
2018    6        9     3  35    2.2810   451.5    4.743      31.369
2018    6        9     3  43    2.2804   451.4    4.743      31.352
2018    6        9     3  50    2.2799   451.3    4.744      31.336
2018    6        9     3  57    2.2793   451.1    4.744      31.320
2018    6        9     4   5    2.2788   451.0    4.744      31.305
2018    6        9     4  12    2.2783   450.9    4.745      31.290
2018    6        9     4  19    2.2778   450.8    4.745      31.276
2018    6        9     4  26    2.2772   450.7    4.746      31.262
2018    6        9     4  34    2.2767   450.6    4.746      31.248
2018    6        9     4  41    2.2762   450.5    4.747      31.235
2018    6        9     4  48    2.2757   450.4    4.747      31.221
2018    6        9     4  55    2.2751   450.3    4.748      31.208
2018    6        9     5   3    2.2746   450.2    4.748      31.195
2018    6        9     5  10    2.2740   450.1    4.749      31.182
2018    6        9     5  17    2.2735   450.0    4.749      31.169
2018    6        9     5  24    2.2729   449.9    4.750      31.156
2018    6        9     5  32    2.2724   449.8    4.750      31.143
2018    6        9     5  39    2.2718   449.7    4.751      31.130
2018    6        9     5  46    2.2712   449.6    4.751      31.117
2018    6        9     5  53    2.2706   449.5    4.752      31.104
2018    6        9     6   1    2.2701   449.4    4.752      31.091
2018    6        9     6   8    2.2695   449.3    4.753      31.078
2018    6        9     6  15    2.2689   449.2    4.753      31.064
2018    6        9     6  22    2.2683   449.1    4.754      31.051
2018    6        9     6  30    2.2678   449.0    4.754      31.037
2018    6        9     6  37    2.2672   448.9    4.754      31.024
2018    6        9     6  44    2.2666   448.8    4.755      31.010
2018    6        9     6  51    2.2660   448.6    4.755      30.997
2018    6        9     6  59    2.2654   448.5    4.755      30.983
2018    6        9     7   6    2.2648   448.4    4.755      30.969
2018    6        9     7  13    2.2642   448.3    4.756      30.955
2018    6        9     7  20    2.2636   448.2    4.756      30.941
2018    6        9     7  28    2.2630   448.1    4.756      30.927
2018    6        9     7  35    2.2623   448.0    4.756      30.912
2018    6        9     7  42    2.2617   447.9    4.756      30.897
2018    6        9     7  49    2.2611   447.8    4.756      30.882
2018    6        9     7  57    2.2604   447.7    4.756      30.866
2018    6        9     8   4    2.2598   447.5    4.756      30.850
2018    6        9     8  11    2.2591   447.4    4.755      30.834
2018    6        9     8  18    2.2585   447.3    4.755      30.817
2018    6        9     8  26    2.2578   447.2    4.755      30.800
2018    6        9     8  33    2.2571   447.1    4.754      30.783
2018    6        9     8  40    2.2565   447.0    4.754      30.766
2018    6        9     8  47    2.2558   446.9    4.754      30.748
2018    6        9     8  55    2.2551   446.7    4.753      30.730
2018    6        9     9   2    2.2544   446.6    4.753      30.711
2018    6        9     9   9    2.2538   446.5    4.752      30.692
2018    6        9     9  16    2.2531   446.4    4.752      30.673
2018    6        9     9  24    2.2524   446.3    4.751      30.654
2018    6        9     9  31    2.2517   446.1    4.751      30.634
2018    6        9     9  38    2.2510   446.0    4.750      30.614
2018    6        9     9  45    2.2503   445.9    4.750      30.594
2018    6        9     9  53    2.2496   445.8    4.749      30.573
2018    6        9    10   0    2.2489   445.6    4.748      30.552
2018    6        9    10   7    2.2482   445.5    4.748      30.531
2018    6        9    10  14    2.2475   445.4    4.747      30.510
2018    6        9    10  22    2.2468   445.3    4.747      30.489
2018    6        9    10  29    2.2461   445.1    4.746      30.467
2018    6        9    10  36    2.2454   445.0    4.745      30.445
2018    6        9    10  44    2.2447   444.9    4.745      30.424
2018    6        9    10  51    2.2441   444.7    4.744      30.402
2018    6        9    10  58    2.2434   444.6    4.744      30.380
2018    6        9    11   5    2.2427   444.5    4.744      30.358
2018    6        9    11  13    2.2421   444.4    4.743      30.337
2018    6        9    11  20    2.2414   444.2    4.743      30.315
2018    6        9    11  27    2.2407   444.1    4.743      30.294
2018    6        9    11  34    2.2401   444.0    4.743      30.272
2018    6        9    11  42    2.2395   443.8    4.743      30.251
2018    6        9    11  49    2.2389   443.7    4.743      30.230
2018    6        9    11  56    2.2382   443.6    4.743      30.209
2018    6        9    12   3    2.2376   443.4    4.743      30.189
2018    6        9    12  11    2.2370   443.3    4.743      30.169
2018    6        9    12  18    2.2364   443.1    4.744      30.148
2018    6        9    12  25    2.2359   443.0    4.744      30.129
2018    6        9    12  32    2.2353   442.9    4.745      30.109
2018    6        9    12  40    2.2347   442.7    4.746      30.090
2018    6        9    12  47    2.2342   442.6    4.746      30.071
2018    6        9    12  54    2.2336   442.5    4.747      30.052
2018    6        9    13   1    2.2331   442.3    4.748      30.034
2018    6        9    13   9    2.2326   442.2    4.749      30.016
2018    6        9    13  16    2.2321   442.1    4.751      29.998
2018    6        9    13  23    2.2315   441.9    4.752      29.981
2018    6        9    13  30    2.2311   441.8    4.753      29.964
2018    6        9    13  38    2.2306   441.7    4.755      29.948
2018    6        9    13  45    2.2301   441.5    4.756      29.932
2018    6        9    13  52    2.2297   441.4    4.758      29.916
2018    6        9    13  59    2.2292   441.3    4.760      29.901
2018    6        9    14   7    2.2288   441.1    4.761      29.886
2018    6        9    14  14    2.2284   441.0    4.763      29.872
2018    6        9    14  21    2.2280   440.9    4.765      29.857
2018    6        9    14  28    2.2276   440.7    4.767      29.844
2018    6        9    14  36    2.2272   440.6    4.769      29.830
2018    6        9    14  43    2.2268   440.5    4.771      29.817
2018    6        9    14  50    2.2264   440.3    4.773      29.804
2018    6        9    14  57    2.2261   440.2    4.774      29.791
2018    6        9    15   5    2.2257   440.1    4.776      29.779
2018    6        9    15  12    2.2254   440.0    4.778      29.766
2018    6        9    15  19    2.2250   439.8    4.780      29.753
2018    6        9    15  26    2.2247   439.7    4.782      29.741
2018    6        9    15  34    2.2243   439.6    4.784      29.729
2018    6        9    15  41    2.2240   439.4    4.786      29.716
2018    6        9    15  48    2.2236   439.3    4.788      29.703
2018    6        9    15  55    2.2233   439.2    4.790      29.691
2018    6        9    16   3    2.2229   439.1    4.792      29.678
2018    6        9    16  10    2.2225   438.9    4.793      29.665
2018    6        9    16  17    2.2221   438.8    4.795      29.652
2018    6        9    16  24    2.2217   438.7    4.797      29.639
2018    6        9    16  32    2.2213   438.5    4.798      29.626
2018    6        9    16  39    2.2208   438.4    4.800      29.613
2018    6        9    16  46    2.2204   438.3    4.801      29.599
2018    6        9    16  53    2.2200   438.1    4.803      29.585
2018    6        9    17   1    2.2195   438.0    4.804      29.571
2018    6        9    17   8    2.2191   437.9    4.806      29.557
2018    6        9    17  15    2.2187   437.7    4.807      29.543
2018    6        9    17  23    2.2182   437.6    4.808      29.529
2018    6        9    17  30    2.2178   437.4    4.810      29.514
2018    6        9    17  37    2.2174   437.3    4.811      29.499
2018    6        9    17  44    2.2169   437.2    4.812      29.484
2018    6        9    17  52    2.2165   437.0    4.813      29.469
2018    6        9    17  59    2.2160   436.9    4.815      29.453
2018    6        9    18   6    2.2156   436.7    4.816      29.438
2018    6        9    18  13    2.2152   436.6    4.817      29.422
2018    6        9    18  21    2.2148   436.5    4.818      29.406
2018    6        9    18  28    2.2144   436.3    4.819      29.390
2018    6        9    18  35    2.2140   436.2    4.821      29.373
2018    6        9    18  42    2.2136   436.0    4.822      29.357
2018    6        9    18  50    2.2132   435.9    4.823      29.340
2018    6        9    18  57    2.2128   435.7    4.824      29.323
2018    6        9    19   4    2.2124   435.6    4.826      29.306
2018    6        9    19  11    2.2120   435.4    4.827      29.289
2018    6        9    19  19    2.2117   435.3    4.829      29.272
2018    6        9    19  26    2.2113   435.1    4.830      29.255
2018    6        9    19  33    2.2110   435.0    4.832      29.237
2018    6        9    19  40    2.2107   434.8    4.833      29.220
2018    6        9    19  48    2.2104   434.7    4.835      29.202
2018    6        9    19  55    2.2100   434.5    4.837      29.184
2018    6        9    20   2    2.2098   434.4    4.839      29.167
2018    6        9    20   9    2.2095   434.2    4.841      29.149
2018    6        9    20  17    2.2092   434.1    4.843      29.132
2018    6        9    20  24    2.2090   433.9    4.845      29.114
2018    6        9    20  31    2.2088   433.8    4.847      29.097
2018    6        9    20  38    2.2085   433.6    4.849      29.080
2018    6        9    20  46    2.2084   433.4    4.852      29.063
2018    6        9    20  53    2.2082   433.3    4.855      29.047
2018    6        9    21   0    2.2080   433.1    4.858      29.031
2018    6        9    21   7    2.2079   433.0    4.861      29.015
2018    6        9    21  15    2.2078   432.8    4.864      29.000
2018    6        9    21  22    2.2077   432.7    4.867      28.985
2018    6        9    21  29    2.2077   432.5    4.871      28.971
2018    6        9    21  36    2.2076   432.4    4.874      28.957
2018    6        9    21  44    2.2076   432.2    4.878      28.944
2018    6        9    21  51    2.2076   432.0    4.882      28.931
2018    6        9    21  58    2.2077   431.9    4.886      28.919
2018    6        9    22   5    2.2077   431.7    4.891      28.907
2018    6        9    22  13    2.2078   431.6    4.895      28.896
2018    6        9    22  20    2.2080   431.4    4.900      28.886
2018    6        9    22  27    2.2081   431.3    4.904      28.876
2018    6        9    22  34    2.2083   431.1    4.909      28.867
2018    6        9    22  42    2.2085   431.0    4.914      28.858
2018    6        9    22  49    2.2087   430.8    4.919      28.849
2018    6        9    22  56    2.2089   430.7    4.924      28.841
2018    6        9    23   3    2.2091   430.5    4.930      28.833
2018    6        9    23  11    2.2093   430.4    4.935      28.826
2018    6        9    23  18    2.2095   430.2    4.940      28.819
2018    6        9    23  25    2.2098   430.1    4.946      28.812
2018    6        9    23  32    2.2100   429.9    4.951      28.805
2018    6        9    23  40    2.2102   429.8    4.957      28.799
2018    6        9    23  47    2.2105   429.6    4.962      28.793
2018    6        9    23  54    2.2107   429.5    4.968      28.787
2018    6       10     0   2    2.2110   429.3    4.973      28.782
